%OpenBCI Raw EEG Data
%Number of channels = 4
%Sample Rate = 200 Hz
%Board = OpenBCI_GUI$BoardGanglionBLE
Sample Index, EXG Channel 0, EXG Channel 1, EXG Channel 2, EXG Channel 3, Accel Channel 0, Accel Channel 1, Accel Channel 2, Other, Other, Other, Other, Other, Timestamp, Timestamp (Formatted)
102.0, 0.7517198920249939, 25.84644889831543, 1.6231166124343872, 9.521785736083984, 0.0, 0.0, 0.0, 0.0, 0.0, 0.0, 0.0, 0.0, 1.6186668673665187E9, 2021-04-17 16:41:07.366
102.0, 33.99195098876953, -4.888049125671387, 10.438060760498047, -34.21260452270508, 0.0, 0.0, 0.0, 0.0, 0.0, 0.0, 0.0, 0.0, 1.6186668673665187E9, 2021-04-17 16:41:07.366
103.0, 20.131881713867188, 6.926294803619385, 0.23935359716415405, -32.43989181518555, 0.0, 0.0, 0.0, 0.0, 0.0, 0.0, 0.0, 0.0, 1.6186668673670113E9, 2021-04-17 16:41:07.367
103.0, -7.554597854614258, 7.038491725921631, -0.8788765072822571, 9.615283012390137, 0.0, 0.0, 0.0, 0.0, 0.0, 0.0, 0.0, 0.0, 1.6186668673670113E9, 2021-04-17 16:41:07.367
104.0, 12.846556663513184, 7.756552696228027, 31.489957809448242, 2.0569450855255127, 0.0, 0.0, 0.0, 0.0, 0.0, 0.0, 0.0, 0.0, 1.6186668673793178E9, 2021-04-17 16:41:07.379
104.0, 37.59721374511719, -3.6501424312591553, -4.042831897735596, -35.12139892578125, 0.0, 0.0, 0.0, 0.0, 0.0, 0.0, 0.0, 0.0, 1.6186668673793178E9, 2021-04-17 16:41:07.379
105.0, 20.07952308654785, 15.875875473022461, 1.0284725427627563, -29.98651695251465, 0.0, 0.0, 0.0, 0.0, 0.0, 0.0, 0.0, 0.0, 1.618666867395128E9, 2021-04-17 16:41:07.395
105.0, -10.299684524536133, -6.204493999481201, -23.935359954833984, 11.316937446594238, 0.0, 0.0, 0.0, 0.0, 0.0, 0.0, 0.0, 0.0, 1.618666867395128E9, 2021-04-17 16:41:07.395
106.0, 5.804324626922607, 3.8782763481140137, 2.3262178897857666, 4.413082122802734, 0.0, 0.0, 0.0, 0.0, 0.0, 0.0, 0.0, 0.0, 1.6186668673957715E9, 2021-04-17 16:41:07.395
106.0, 41.928016662597656, -1.4772604703903198, 3.968033790588379, -39.915950775146484, 0.0, 0.0, 0.0, 0.0, 0.0, 0.0, 0.0, 0.0, 1.6186668673957715E9, 2021-04-17 16:41:07.395
107.0, 17.293296813964844, 0.09349749982357025, 0.991073489189148, -30.1772518157959, 0.0, 0.0, 0.0, 0.0, 0.0, 0.0, 0.0, 0.0, 1.6186668674093652E9, 2021-04-17 16:41:07.409
107.0, -0.13837629556655884, 9.043078422546387, -23.307056427001953, 7.6256561279296875, 0.0, 0.0, 0.0, 0.0, 0.0, 0.0, 0.0, 0.0, 1.6186668674093652E9, 2021-04-17 16:41:07.409
108.0, 5.187241077423096, 37.96372604370117, -10.841970443725586, -4.356983661651611, 0.0, 0.0, 0.0, 0.0, 0.0, 0.0, 0.0, 0.0, 1.6186668674250972E9, 2021-04-17 16:41:07.425
108.0, 32.51469039916992, 11.272058486938477, -16.433120727539062, -43.027549743652344, 0.0, 0.0, 0.0, 0.0, 0.0, 0.0, 0.0, 0.0, 1.6186668674250972E9, 2021-04-17 16:41:07.425
109.0, 19.825210571289062, -10.703593254089355, -16.728572845458984, -18.819175720214844, 0.0, 0.0, 0.0, 0.0, 0.0, 0.0, 0.0, 0.0, 1.6186668674257653E9, 2021-04-17 16:41:07.425
109.0, -9.450727462768555, -9.783577919006348, -6.447587490081787, 16.373281478881836, 0.0, 0.0, 0.0, 0.0, 0.0, 0.0, 0.0, 0.0, 1.6186668674257653E9, 2021-04-17 16:41:07.425
110.0, 8.545671463012695, 10.389442443847656, 12.394028663635254, -4.042831897735596, 0.0, 0.0, 0.0, 0.0, 0.0, 0.0, 0.0, 0.0, 1.6186668674393833E9, 2021-04-17 16:41:07.439
110.0, 33.909671783447266, 0.18325509130954742, -15.666440963745117, -40.20392608642578, 0.0, 0.0, 0.0, 0.0, 0.0, 0.0, 0.0, 0.0, 1.6186668674393833E9, 2021-04-17 16:41:07.439
111.0, 12.835336685180664, 6.339130401611328, -1.4024624824523926, -20.374975204467773, 0.0, 0.0, 0.0, 0.0, 0.0, 0.0, 0.0, 0.0, 1.6186668674550817E9, 2021-04-17 16:41:07.455
111.0, -15.086756706237793, -1.630596399307251, -21.04815673828125, 20.015945434570312, 0.0, 0.0, 0.0, 0.0, 0.0, 0.0, 0.0, 0.0, 1.6186668674550817E9, 2021-04-17 16:41:07.455
112.0, 10.64749526977539, -4.996506214141846, -23.355674743652344, -2.6179299354553223, 0.0, 0.0, 0.0, 0.0, 0.0, 0.0, 0.0, 0.0, 1.6186668674557524E9, 2021-04-17 16:41:07.455
112.0, 39.32504653930664, -4.891788959503174, -25.947425842285156, -34.829689025878906, 0.0, 0.0, 0.0, 0.0, 0.0, 0.0, 0.0, 0.0, 1.6186668674557524E9, 2021-04-17 16:41:07.455
113.0, 11.346856117248535, -3.6052634716033936, -20.251558303833008, -11.68344783782959, 0.0, 0.0, 0.0, 0.0, 0.0, 0.0, 0.0, 0.0, 1.6186668674695425E9, 2021-04-17 16:41:07.469
113.0, -7.633135795593262, -2.7899653911590576, -38.449913024902344, 17.929080963134766, 0.0, 0.0, 0.0, 0.0, 0.0, 0.0, 0.0, 0.0, 1.6186668674695425E9, 2021-04-17 16:41:07.469
114.0, 18.89397430419922, -4.779592037200928, 13.134529113769531, -1.9148287773132324, 0.0, 0.0, 0.0, 0.0, 0.0, 0.0, 0.0, 0.0, 1.6186668675016663E9, 2021-04-17 16:41:07.501
114.0, 17.476552963256836, -9.226333618164062, -1.3201847076416016, -40.73125076293945, 0.0, 0.0, 0.0, 0.0, 0.0, 0.0, 0.0, 0.0, 1.6186668675016663E9, 2021-04-17 16:41:07.501
115.0, -24.212112426757812, -8.583070755004883, -58.649112701416016, -4.338284015655518, 0.0, 0.0, 0.0, 0.0, 0.0, 0.0, 0.0, 0.0, 1.6186668675021749E9, 2021-04-17 16:41:07.502
115.0, -60.638736724853516, -12.734359741210938, -39.66911697387695, 19.97480583190918, 0.0, 0.0, 0.0, 0.0, 0.0, 0.0, 0.0, 0.0, 1.6186668675021749E9, 2021-04-17 16:41:07.502
116.0, -11.840523719787598, -12.079876899719238, -32.63810729980469, -2.778745651245117, 0.0, 0.0, 0.0, 0.0, 0.0, 0.0, 0.0, 0.0, 1.6186668675028887E9, 2021-04-17 16:41:07.502
116.0, -12.850296020507812, -8.964540481567383, -0.3104116916656494, -37.410221099853516, 0.0, 0.0, 0.0, 0.0, 0.0, 0.0, 0.0, 0.0, 1.6186668675028887E9, 2021-04-17 16:41:07.502
117.0, -29.866840362548828, 0.01869950070977211, -59.311073303222656, -8.22029972076416, 0.0, 0.0, 0.0, 0.0, 0.0, 0.0, 0.0, 0.0, 1.618666867503679E9, 2021-04-17 16:41:07.503
117.0, -51.44980239868164, -9.379669189453125, -53.47309112548828, 20.169281005859375, 0.0, 0.0, 0.0, 0.0, 0.0, 0.0, 0.0, 0.0, 1.618666867503679E9, 2021-04-17 16:41:07.503
118.0, -21.107995986938477, -14.813743591308594, -24.447725296020508, -11.021485328674316, 0.0, 0.0, 0.0, 0.0, 0.0, 0.0, 0.0, 0.0, 1.6186668675143433E9, 2021-04-17 16:41:07.514
118.0, -4.869349956512451, 2.7114274501800537, 5.048864841461182, -31.78166961669922, 0.0, 0.0, 0.0, 0.0, 0.0, 0.0, 0.0, 0.0, 1.6186668675143433E9, 2021-04-17 16:41:07.514
119.0, -45.652957916259766, 30.872873306274414, -41.81956100463867, -5.692127704620361, 0.0, 0.0, 0.0, 0.0, 0.0, 0.0, 0.0, 0.0, 1.6186668675294664E9, 2021-04-17 16:41:07.529
119.0, -48.566341400146484, -30.958890914916992, -47.29477310180664, 22.62265396118164, 0.0, 0.0, 0.0, 0.0, 0.0, 0.0, 0.0, 0.0, 1.6186668675294664E9, 2021-04-17 16:41:07.529
120.0, -20.479692459106445, -33.206573486328125, -54.95035171508789, -8.216560363769531, 0.0, 0.0, 0.0, 0.0, 0.0, 0.0, 0.0, 0.0, 1.6186668675614073E9, 2021-04-17 16:41:07.561
120.0, -2.445894479751587, -33.247711181640625, -31.78915023803711, -27.989410400390625, 0.0, 0.0, 0.0, 0.0, 0.0, 0.0, 0.0, 0.0, 1.6186668675614073E9, 2021-04-17 16:41:07.561
121.0, -41.14263916015625, -21.590442657470703, -59.78977966308594, 7.999646186828613, 0.0, 0.0, 0.0, 0.0, 0.0, 0.0, 0.0, 0.0, 1.6186668675621607E9, 2021-04-17 16:41:07.562
121.0, -45.323848724365234, -16.216205596923828, -49.2208251953125, 24.174713134765625, 0.0, 0.0, 0.0, 0.0, 0.0, 0.0, 0.0, 0.0, 1.6186668675621607E9, 2021-04-17 16:41:07.562
122.0, -7.85004997253418, -24.24203109741211, -49.991241455078125, -11.68344783782959, 0.0, 0.0, 0.0, 0.0, 0.0, 0.0, 0.0, 0.0, 1.6186668675628972E9, 2021-04-17 16:41:07.562
122.0, -10.40066146850586, -31.938745498657227, -43.92512512207031, -24.675859451293945, 0.0, 0.0, 0.0, 0.0, 0.0, 0.0, 0.0, 0.0, 1.6186668675628972E9, 2021-04-17 16:41:07.562
123.0, -31.94996452331543, -28.415760040283203, -63.09585189819336, 8.141761779785156, 0.0, 0.0, 0.0, 0.0, 0.0, 0.0, 0.0, 0.0, 1.6186668675636103E9, 2021-04-17 16:41:07.563
123.0, -38.173160552978516, -16.578975677490234, -52.803646087646484, 24.096176147460938, 0.0, 0.0, 0.0, 0.0, 0.0, 0.0, 0.0, 0.0, 1.6186668675636103E9, 2021-04-17 16:41:07.563
124.0, 2.4870333671569824, -20.52457046508789, -37.496238708496094, -15.69636058807373, 0.0, 0.0, 0.0, 0.0, 0.0, 0.0, 0.0, 0.0, 1.618666867574309E9, 2021-04-17 16:41:07.574
124.0, -13.164447784423828, -46.07182693481445, -52.6652717590332, -24.294389724731445, 0.0, 0.0, 0.0, 0.0, 0.0, 0.0, 0.0, 0.0, 1.618666867574309E9, 2021-04-17 16:41:07.574
125.0, -33.89471435546875, -34.38838195800781, -61.368019104003906, 9.241292953491211, 0.0, 0.0, 0.0, 0.0, 0.0, 0.0, 0.0, 0.0, 1.618666867589308E9, 2021-04-17 16:41:07.589
125.0, -35.28595733642578, -42.545101165771484, 1.2827856540679932, 22.540376663208008, 0.0, 0.0, 0.0, 0.0, 0.0, 0.0, 0.0, 0.0, 1.618666867589308E9, 2021-04-17 16:41:07.589
126.0, -9.069257736206055, -32.33891677856445, -71.39842987060547, -10.307164192199707, 0.0, 0.0, 0.0, 0.0, 0.0, 0.0, 0.0, 0.0, 1.6186668676052873E9, 2021-04-17 16:41:07.605
126.0, -9.117876052856445, -33.711456298828125, -82.14690399169922, -26.908580780029297, 0.0, 0.0, 0.0, 0.0, 0.0, 0.0, 0.0, 0.0, 1.6186668676052873E9, 2021-04-17 16:41:07.605
127.0, -37.926326751708984, -40.877105712890625, -82.2030029296875, 13.358922958374023, 0.0, 0.0, 0.0, 0.0, 0.0, 0.0, 0.0, 0.0, 1.6186668676058056E9, 2021-04-17 16:41:07.605
127.0, -37.14094543457031, -46.55427551269531, -65.49312591552734, 9.155275344848633, 0.0, 0.0, 0.0, 0.0, 0.0, 0.0, 0.0, 0.0, 1.6186668676058056E9, 2021-04-17 16:41:07.605
128.0, 2.9844400882720947, -43.86528778076172, -61.58867263793945, -16.537837982177734, 0.0, 0.0, 0.0, 0.0, 0.0, 0.0, 0.0, 0.0, 1.6186668676196196E9, 2021-04-17 16:41:07.619
128.0, -13.875028610229492, -32.151920318603516, -58.57431411743164, -21.194013595581055, 0.0, 0.0, 0.0, 0.0, 0.0, 0.0, 0.0, 0.0, 1.6186668676196196E9, 2021-04-17 16:41:07.619
129.0, -32.71290588378906, -32.159400939941406, -68.91887664794922, 13.643155097961426, 0.0, 0.0, 0.0, 0.0, 0.0, 0.0, 0.0, 0.0, 1.6186668676350756E9, 2021-04-17 16:41:07.635
129.0, -32.79518127441406, -37.46631622314453, -84.615234375, 14.978299140930176, 0.0, 0.0, 0.0, 0.0, 0.0, 0.0, 0.0, 0.0, 1.6186668676350756E9, 2021-04-17 16:41:07.635
130.0, 14.761384963989258, -51.300209045410156, -67.82682800292969, -19.421300888061523, 0.0, 0.0, 0.0, 0.0, 0.0, 0.0, 0.0, 0.0, 1.6186668676357932E9, 2021-04-17 16:41:07.635
130.0, -14.7950439453125, -72.4680404663086, -78.8931884765625, -16.522878646850586, 0.0, 0.0, 0.0, 0.0, 0.0, 0.0, 0.0, 0.0, 1.6186668676357932E9, 2021-04-17 16:41:07.635
131.0, -40.73125076293945, -46.898345947265625, -78.0255355834961, 19.080968856811523, 0.0, 0.0, 0.0, 0.0, 0.0, 0.0, 0.0, 0.0, 1.6186668676493297E9, 2021-04-17 16:41:07.649
131.0, -25.382701873779297, -50.96735763549805, -79.12506103515625, 12.352890014648438, 0.0, 0.0, 0.0, 0.0, 0.0, 0.0, 0.0, 0.0, 1.6186668676493297E9, 2021-04-17 16:41:07.649
132.0, 1.196768045425415, -60.27970886230469, -77.67024230957031, -21.59418296813965, 0.0, 0.0, 0.0, 0.0, 0.0, 0.0, 0.0, 0.0, 1.618666867665066E9, 2021-04-17 16:41:07.665
132.0, -7.655575275421143, -40.05432891845703, -79.2970962524414, -14.379915237426758, 0.0, 0.0, 0.0, 0.0, 0.0, 0.0, 0.0, 0.0, 1.618666867665066E9, 2021-04-17 16:41:07.665
133.0, -33.56560134887695, -60.82573318481445, -79.14376068115234, 23.991458892822266, 0.0, 0.0, 0.0, 0.0, 0.0, 0.0, 0.0, 0.0, 1.61866686766575E9, 2021-04-17 16:41:07.665
133.0, -18.55364418029785, -48.566341400146484, -49.9949836730957, 3.350950241088867, 0.0, 0.0, 0.0, 0.0, 0.0, 0.0, 0.0, 0.0, 1.61866686766575E9, 2021-04-17 16:41:07.665
134.0, 0.7629395723342896, -67.99137878417969, -76.29022216796875, -26.003524780273438, 0.0, 0.0, 0.0, 0.0, 0.0, 0.0, 0.0, 0.0, 1.6186668676793692E9, 2021-04-17 16:41:07.679
134.0, -11.328157424926758, -75.8638687133789, -113.94353485107422, -14.679107666015625, 0.0, 0.0, 0.0, 0.0, 0.0, 0.0, 0.0, 0.0, 1.6186668676793692E9, 2021-04-17 16:41:07.679
135.0, -25.102209091186523, -53.80220031738281, -98.49774169921875, 23.91666030883789, 0.0, 0.0, 0.0, 0.0, 0.0, 0.0, 0.0, 0.0, 1.6186668676952732E9, 2021-04-17 16:41:07.695
135.0, -17.887941360473633, -62.115997314453125, -89.51824188232422, 8.3511962890625, 0.0, 0.0, 0.0, 0.0, 0.0, 0.0, 0.0, 0.0, 1.6186668676952732E9, 2021-04-17 16:41:07.695
136.0, 12.296791076660156, -67.58373260498047, -91.822021484375, -36.90159225463867, 0.0, 0.0, 0.0, 0.0, 0.0, 0.0, 0.0, 0.0, 1.618666867695891E9, 2021-04-17 16:41:07.695
136.0, -16.743532180786133, -66.92925262451172, -75.29914855957031, -13.527217864990234, 0.0, 0.0, 0.0, 0.0, 0.0, 0.0, 0.0, 0.0, 1.618666867695891E9, 2021-04-17 16:41:07.695
137.0, -36.43784713745117, -58.675289154052734, -108.97320556640625, 15.883355140686035, 0.0, 0.0, 0.0, 0.0, 0.0, 0.0, 0.0, 0.0, 1.6186668677093663E9, 2021-04-17 16:41:07.709
137.0, -24.096176147460938, -60.223609924316406, -92.1399154663086, 0.43008849024772644, 0.0, 0.0, 0.0, 0.0, 0.0, 0.0, 0.0, 0.0, 1.6186668677093663E9, 2021-04-17 16:41:07.709
138.0, 13.355182647705078, -82.3451156616211, -81.5223388671875, -37.93380355834961, 0.0, 0.0, 0.0, 0.0, 0.0, 0.0, 0.0, 0.0, 1.6186668677250805E9, 2021-04-17 16:41:07.725
138.0, -6.716860294342041, -75.73297119140625, -106.916259765625, -17.65606689453125, 0.0, 0.0, 0.0, 0.0, 0.0, 0.0, 0.0, 0.0, 1.6186668677250805E9, 2021-04-17 16:41:07.725
139.0, -37.728111267089844, -66.17752838134766, -107.18927001953125, 22.31224250793457, 0.0, 0.0, 0.0, 0.0, 0.0, 0.0, 0.0, 0.0, 1.6186668677257588E9, 2021-04-17 16:41:07.725
139.0, -9.499345779418945, -74.3342514038086, -102.97814178466797, -7.090850353240967, 0.0, 0.0, 0.0, 0.0, 0.0, 0.0, 0.0, 0.0, 1.6186668677257588E9, 2021-04-17 16:41:07.725
140.0, 12.487525939941406, -79.68605041503906, -89.98573303222656, -39.53822326660156, 0.0, 0.0, 0.0, 0.0, 0.0, 0.0, 0.0, 0.0, 1.6186668677393641E9, 2021-04-17 16:41:07.739
140.0, -22.689973831176758, -67.81560516357422, -112.3578109741211, -15.142854690551758, 0.0, 0.0, 0.0, 0.0, 0.0, 0.0, 0.0, 0.0, 1.6186668677393641E9, 2021-04-17 16:41:07.739
141.0, -31.2805233001709, -80.57240295410156, -111.4303207397461, 18.508764266967773, 0.0, 0.0, 0.0, 0.0, 0.0, 0.0, 0.0, 0.0, 1.618666867755315E9, 2021-04-17 16:41:07.755
141.0, -12.30427074432373, -75.19442749023438, -117.22716522216797, -6.982393264770508, 0.0, 0.0, 0.0, 0.0, 0.0, 0.0, 0.0, 0.0, 1.618666867755315E9, 2021-04-17 16:41:07.755
142.0, 21.829795837402344, -72.8495101928711, -62.07112121582031, -35.46547317504883, 0.0, 0.0, 0.0, 0.0, 0.0, 0.0, 0.0, 0.0, 1.618666867755752E9, 2021-04-17 16:41:07.755
142.0, -21.474506378173828, -52.21648406982422, -116.071533203125, -17.835582733154297, 0.0, 0.0, 0.0, 0.0, 0.0, 0.0, 0.0, 0.0, 1.618666867755752E9, 2021-04-17 16:41:07.755
143.0, -29.376914978027344, -77.59170532226562, -112.75798034667969, 11.67222785949707, 0.0, 0.0, 0.0, 0.0, 0.0, 0.0, 0.0, 0.0, 1.6186668677694435E9, 2021-04-17 16:41:07.769
143.0, -2.2476799488067627, -109.21630096435547, -130.80299377441406, -8.078184127807617, 0.0, 0.0, 0.0, 0.0, 0.0, 0.0, 0.0, 0.0, 1.6186668677694435E9, 2021-04-17 16:41:07.769
144.0, 9.319830894470215, -102.67521667480469, -128.6600341796875, -35.80206298828125, 0.0, 0.0, 0.0, 0.0, 0.0, 0.0, 0.0, 0.0, 1.6186668677852356E9, 2021-04-17 16:41:07.785
144.0, -22.170127868652344, -92.54756164550781, -111.40788269042969, -5.321877479553223, 0.0, 0.0, 0.0, 0.0, 0.0, 0.0, 0.0, 0.0, 1.6186668677852356E9, 2021-04-17 16:41:07.785
145.0, -34.74740982055664, -88.52342987060547, -135.25347900390625, 16.728572845458984, 0.0, 0.0, 0.0, 0.0, 0.0, 0.0, 0.0, 0.0, 1.6186668677857876E9, 2021-04-17 16:41:07.785
145.0, -2.2177605628967285, -91.23485565185547, -122.06285095214844, -16.111488342285156, 0.0, 0.0, 0.0, 0.0, 0.0, 0.0, 0.0, 0.0, 1.6186668677857876E9, 2021-04-17 16:41:07.785
146.0, 8.059484481811523, -91.62007141113281, -127.27627563476562, -34.98302459716797, 0.0, 0.0, 0.0, 0.0, 0.0, 0.0, 0.0, 0.0, 1.618666867799374E9, 2021-04-17 16:41:07.799
146.0, -23.755844116210938, -97.59268951416016, -122.34708404541016, -6.982393264770508, 0.0, 0.0, 0.0, 0.0, 0.0, 0.0, 0.0, 0.0, 1.618666867799374E9, 2021-04-17 16:41:07.799
147.0, -26.628087997436523, -92.40918731689453, -113.18059539794922, 15.038137435913086, 0.0, 0.0, 0.0, 0.0, 0.0, 0.0, 0.0, 0.0, 1.6186668678150644E9, 2021-04-17 16:41:07.815
147.0, -2.307518243789673, -92.5662612915039, -132.7327880859375, -22.39826011657715, 0.0, 0.0, 0.0, 0.0, 0.0, 0.0, 0.0, 0.0, 1.6186668678150644E9, 2021-04-17 16:41:07.815
148.0, 13.759092330932617, -95.34874725341797, -127.1528549194336, -45.611820220947266, 0.0, 0.0, 0.0, 0.0, 0.0, 0.0, 0.0, 0.0, 1.6186668678157144E9, 2021-04-17 16:41:07.815
148.0, -31.43385887145996, -95.72647857666016, -131.95115661621094, -3.1115968227386475, 0.0, 0.0, 0.0, 0.0, 0.0, 0.0, 0.0, 0.0, 1.6186668678157144E9, 2021-04-17 16:41:07.815
149.0, -30.16229248046875, -95.58061981201172, -128.77223205566406, 6.851496696472168, 0.0, 0.0, 0.0, 0.0, 0.0, 0.0, 0.0, 0.0, 1.6186668678295832E9, 2021-04-17 16:41:07.829
149.0, -0.531065821647644, -102.95944213867188, -120.05826568603516, -23.6922664642334, 0.0, 0.0, 0.0, 0.0, 0.0, 0.0, 0.0, 0.0, 1.6186668678295832E9, 2021-04-17 16:41:07.829
150.0, -9.761138916015625, -90.38964080810547, -153.8520050048828, -39.25025177001953, 0.0, 0.0, 0.0, 0.0, 0.0, 0.0, 0.0, 0.0, 1.6186668678450212E9, 2021-04-17 16:41:07.845
150.0, -29.118860244750977, -102.30496215820312, -135.47787475585938, -1.5819777250289917, 0.0, 0.0, 0.0, 0.0, 0.0, 0.0, 0.0, 0.0, 1.6186668678450212E9, 2021-04-17 16:41:07.845
151.0, -34.336021423339844, -82.44983673095703, -118.4201889038086, 13.145748138427734, 0.0, 0.0, 0.0, 0.0, 0.0, 0.0, 0.0, 0.0, 1.6186668678457203E9, 2021-04-17 16:41:07.845
151.0, 5.707087516784668, -92.30821228027344, -42.41420364379883, -36.879154205322266, 0.0, 0.0, 0.0, 0.0, 0.0, 0.0, 0.0, 0.0, 1.6186668678457203E9, 2021-04-17 16:41:07.845
152.0, -6.907595157623291, -100.26671600341797, -216.85435485839844, -37.61591339111328, 0.0, 0.0, 0.0, 0.0, 0.0, 0.0, 0.0, 0.0, 1.6186668678593931E9, 2021-04-17 16:41:07.859
152.0, -36.14613342285156, -85.72224426269531, -137.0561065673828, -2.307518243789673, 0.0, 0.0, 0.0, 0.0, 0.0, 0.0, 0.0, 0.0, 1.6186668678593931E9, 2021-04-17 16:41:07.859
153.0, -36.55378341674805, -122.60514068603516, -124.72940063476562, 13.112089157104492, 0.0, 0.0, 0.0, 0.0, 0.0, 0.0, 0.0, 0.0, 1.618666867875022E9, 2021-04-17 16:41:07.875
153.0, -2.8086647987365723, -111.5537338256836, -154.3082733154297, -39.209110260009766, 0.0, 0.0, 0.0, 0.0, 0.0, 0.0, 0.0, 0.0, 1.618666867875022E9, 2021-04-17 16:41:07.875
154.0, 0.03739900141954422, -120.48835754394531, -151.21163940429688, -37.59721374511719, 0.0, 0.0, 0.0, 0.0, 0.0, 0.0, 0.0, 0.0, 1.618666867875796E9, 2021-04-17 16:41:07.875
154.0, -42.85551452636719, -106.8938217163086, -159.1888427734375, 4.615036487579346, 0.0, 0.0, 0.0, 0.0, 0.0, 0.0, 0.0, 0.0, 1.618666867875796E9, 2021-04-17 16:41:07.875
155.0, -28.72991180419922, -100.27045440673828, -160.4940643310547, -3.4668872356414795, 0.0, 0.0, 0.0, 0.0, 0.0, 0.0, 0.0, 0.0, 1.618666867905857E9, 2021-04-17 16:41:07.905
155.0, -6.746779441833496, -110.95909118652344, -159.14022827148438, -38.67804718017578, 0.0, 0.0, 0.0, 0.0, 0.0, 0.0, 0.0, 0.0, 1.618666867905857E9, 2021-04-17 16:41:07.905
156.0, -10.004232406616211, -117.0513916015625, -154.2259979248047, -43.86902618408203, 0.0, 0.0, 0.0, 0.0, 0.0, 0.0, 0.0, 0.0, 1.6186668679064589E9, 2021-04-17 16:41:07.906
156.0, -51.898590087890625, -105.96632385253906, -155.47512817382812, 1.7801923751831055, 0.0, 0.0, 0.0, 0.0, 0.0, 0.0, 0.0, 0.0, 1.6186668679064589E9, 2021-04-17 16:41:07.906
157.0, -30.40912628173828, -114.84111022949219, -149.1098175048828, -3.66884183883667, 0.0, 0.0, 0.0, 0.0, 0.0, 0.0, 0.0, 0.0, 1.6186668679072125E9, 2021-04-17 16:41:07.907
157.0, 0.5572450757026672, -106.86389923095703, -171.25375366210938, -41.46800994873047, 0.0, 0.0, 0.0, 0.0, 0.0, 0.0, 0.0, 0.0, 1.6186668679072125E9, 2021-04-17 16:41:07.907
158.0, -19.65691375732422, -98.60246276855469, -148.7657470703125, -44.83766174316406, 0.0, 0.0, 0.0, 0.0, 0.0, 0.0, 0.0, 0.0, 1.618666867919465E9, 2021-04-17 16:41:07.919
158.0, -33.288848876953125, -120.18916320800781, -137.13465881347656, 5.953920841217041, 0.0, 0.0, 0.0, 0.0, 0.0, 0.0, 0.0, 0.0, 1.618666867919465E9, 2021-04-17 16:41:07.919
159.0, -33.573081970214844, -103.19506072998047, -126.80878448486328, -12.188333511352539, 0.0, 0.0, 0.0, 0.0, 0.0, 0.0, 0.0, 0.0, 1.6186668679350026E9, 2021-04-17 16:41:07.935
159.0, 8.728926658630371, -130.23828125, -214.86846923828125, -41.13515853881836, 0.0, 0.0, 0.0, 0.0, 0.0, 0.0, 0.0, 0.0, 1.6186668679350026E9, 2021-04-17 16:41:07.935
160.0, -17.22597885131836, -17.910381317138672, -145.54942321777344, -29.627487182617188, 0.0, 0.0, 0.0, 0.0, 0.0, 0.0, 0.0, 0.0, 1.6186668679357207E9, 2021-04-17 16:41:07.935
160.0, -58.48829650878906, -122.7136001586914, -183.33737182617188, 9.1814546585083, 0.0, 0.0, 0.0, 0.0, 0.0, 0.0, 0.0, 0.0, 1.6186668679357207E9, 2021-04-17 16:41:07.935
161.0, -27.57054328918457, -147.610107421875, -162.9212646484375, 1.0509119033813477, 0.0, 0.0, 0.0, 0.0, 0.0, 0.0, 0.0, 0.0, 1.6186668679493732E9, 2021-04-17 16:41:07.949
161.0, -0.9424548149108887, -133.81361389160156, -188.9397430419922, -42.204769134521484, 0.0, 0.0, 0.0, 0.0, 0.0, 0.0, 0.0, 0.0, 1.6186668679493732E9, 2021-04-17 16:41:07.949
162.0, -26.231658935546875, -122.40692901611328, -181.026123046875, -32.716644287109375, 0.0, 0.0, 0.0, 0.0, 0.0, 0.0, 0.0, 0.0, 1.618666867965018E9, 2021-04-17 16:41:07.965
162.0, -56.678184509277344, -116.03413391113281, -185.9403533935547, 7.6518354415893555, 0.0, 0.0, 0.0, 0.0, 0.0, 0.0, 0.0, 0.0, 1.618666867965018E9, 2021-04-17 16:41:07.965
163.0, -26.48971176147461, -108.5019760131836, -181.63946533203125, -13.501038551330566, 0.0, 0.0, 0.0, 0.0, 0.0, 0.0, 0.0, 0.0, 1.618666867965714E9, 2021-04-17 16:41:07.965
163.0, -7.3002848625183105, -121.03812408447266, -185.82815551757812, -51.45354461669922, 0.0, 0.0, 0.0, 0.0, 0.0, 0.0, 0.0, 0.0, 1.618666867965714E9, 2021-04-17 16:41:07.965
164.0, -33.70023727416992, -121.670166015625, -183.44956970214844, -27.20777130126953, 0.0, 0.0, 0.0, 0.0, 0.0, 0.0, 0.0, 0.0, 1.6186668679793632E9, 2021-04-17 16:41:07.979
164.0, -53.08414077758789, -112.01000213623047, -193.63705444335938, 5.161061763763428, 0.0, 0.0, 0.0, 0.0, 0.0, 0.0, 0.0, 0.0, 1.6186668679793632E9, 2021-04-17 16:41:07.979
165.0, -28.744871139526367, -118.84280395507812, -173.60989379882812, -18.75185775756836, 0.0, 0.0, 0.0, 0.0, 0.0, 0.0, 0.0, 0.0, 1.6186668679955852E9, 2021-04-17 16:41:07.995
165.0, -1.8101115226745605, -127.69140625, -176.53823852539062, -61.128665924072266, 0.0, 0.0, 0.0, 0.0, 0.0, 0.0, 0.0, 0.0, 1.6186668679955852E9, 2021-04-17 16:41:07.995
166.0, -34.42203903198242, -122.97538757324219, -210.9079132080078, -22.719892501831055, 0.0, 0.0, 0.0, 0.0, 0.0, 0.0, 0.0, 0.0, 1.6186668680099926E9, 2021-04-17 16:41:08.009
166.0, -59.008140563964844, -110.390625, -189.7026824951172, 5.564970970153809, 0.0, 0.0, 0.0, 0.0, 0.0, 0.0, 0.0, 0.0, 1.6186668680099926E9, 2021-04-17 16:41:08.009
167.0, -29.055282592773438, -116.06779479980469, -112.43635559082031, -19.709272384643555, 0.0, 0.0, 0.0, 0.0, 0.0, 0.0, 0.0, 0.0, 1.6186668680107253E9, 2021-04-17 16:41:08.010
167.0, -10.01919174194336, -123.46905517578125, -262.91497802734375, -52.919586181640625, 0.0, 0.0, 0.0, 0.0, 0.0, 0.0, 0.0, 0.0, 1.6186668680107253E9, 2021-04-17 16:41:08.010
168.0, -30.300668716430664, -133.55557250976562, -239.80612182617188, -20.10196304321289, 0.0, 0.0, 0.0, 0.0, 0.0, 0.0, 0.0, 0.0, 1.6186668680251524E9, 2021-04-17 16:41:08.025
168.0, -66.09525299072266, -90.35224151611328, -215.2387237548828, 5.018945693969727, 0.0, 0.0, 0.0, 0.0, 0.0, 0.0, 0.0, 0.0, 1.6186668680251524E9, 2021-04-17 16:41:08.025
169.0, -13.059730529785156, -103.56156921386719, -166.06651306152344, -21.455806732177734, 0.0, 0.0, 0.0, 0.0, 0.0, 0.0, 0.0, 0.0, 1.6186668680257826E9, 2021-04-17 16:41:08.025
169.0, -17.46533203125, -162.8763885498047, -232.93592834472656, -39.403587341308594, 0.0, 0.0, 0.0, 0.0, 0.0, 0.0, 0.0, 0.0, 1.6186668680257826E9, 2021-04-17 16:41:08.025
170.0, -47.98291778564453, -118.4014892578125, -225.34019470214844, -12.259391784667969, 0.0, 0.0, 0.0, 0.0, 0.0, 0.0, 0.0, 0.0, 1.6186668680393195E9, 2021-04-17 16:41:08.039
170.0, -57.388763427734375, -127.28001403808594, -211.10614013671875, 14.492112159729004, 0.0, 0.0, 0.0, 0.0, 0.0, 0.0, 0.0, 0.0, 1.6186668680393195E9, 2021-04-17 16:41:08.039
171.0, -23.09014320373535, -125.9710464477539, -209.7560272216797, -14.55569076538086, 0.0, 0.0, 0.0, 0.0, 0.0, 0.0, 0.0, 0.0, 1.6186668680552258E9, 2021-04-17 16:41:08.055
171.0, -3.1676952838897705, -132.5570068359375, -213.6941375732422, -51.101993560791016, 0.0, 0.0, 0.0, 0.0, 0.0, 0.0, 0.0, 0.0, 1.6186668680552258E9, 2021-04-17 16:41:08.055
172.0, -55.447757720947266, -122.82205200195312, -196.54296875, -9.772358894348145, 0.0, 0.0, 0.0, 0.0, 0.0, 0.0, 0.0, 0.0, 1.6186668680560853E9, 2021-04-17 16:41:08.056
172.0, -54.580101013183594, -91.38445281982422, -174.42144775390625, 3.3808696269989014, 0.0, 0.0, 0.0, 0.0, 0.0, 0.0, 0.0, 0.0, 1.6186668680560853E9, 2021-04-17 16:41:08.056
173.0, -25.37148094177246, -40.61905288696289, -239.29376220703125, -25.244325637817383, 0.0, 0.0, 0.0, 0.0, 0.0, 0.0, 0.0, 0.0, 1.6186668680694232E9, 2021-04-17 16:41:08.069
173.0, -10.389442443847656, -133.98191833496094, -180.11358642578125, -39.79253387451172, 0.0, 0.0, 0.0, 0.0, 0.0, 0.0, 0.0, 0.0, 1.6186668680694232E9, 2021-04-17 16:41:08.069
174.0, -52.627872467041016, -118.50994873046875, -175.70050048828125, -16.818330764770508, 0.0, 0.0, 0.0, 0.0, 0.0, 0.0, 0.0, 0.0, 1.6186668680850732E9, 2021-04-17 16:41:08.085
174.0, -70.78882598876953, -103.69620513916016, -203.1962432861328, 5.0152058601379395, 0.0, 0.0, 0.0, 0.0, 0.0, 0.0, 0.0, 0.0, 1.6186668680850732E9, 2021-04-17 16:41:08.085
175.0, -16.261085510253906, -64.99945831298828, -226.70899963378906, -32.294036865234375, 0.0, 0.0, 0.0, 0.0, 0.0, 0.0, 0.0, 0.0, 1.6186668680859408E9, 2021-04-17 16:41:08.085
175.0, -13.676814079284668, -164.4845428466797, -226.21533203125, -50.806541442871094, 0.0, 0.0, 0.0, 0.0, 0.0, 0.0, 0.0, 0.0, 1.6186668680859408E9, 2021-04-17 16:41:08.085
176.0, -59.51676940917969, -129.2210235595703, -228.27601623535156, -11.197260856628418, 0.0, 0.0, 0.0, 0.0, 0.0, 0.0, 0.0, 0.0, 1.618666868099341E9, 2021-04-17 16:41:08.099
176.0, -59.363433837890625, -103.91311645507812, -226.37240600585938, 7.737853050231934, 0.0, 0.0, 0.0, 0.0, 0.0, 0.0, 0.0, 0.0, 1.618666868099341E9, 2021-04-17 16:41:08.099
177.0, -27.51444435119629, -132.68417358398438, -202.66143798828125, -30.71953773498535, 0.0, 0.0, 0.0, 0.0, 0.0, 0.0, 0.0, 0.0, 1.6186668681150396E9, 2021-04-17 16:41:08.115
177.0, -18.467626571655273, -121.84967803955078, -205.48880004882812, -44.76286315917969, 0.0, 0.0, 0.0, 0.0, 0.0, 0.0, 0.0, 0.0, 1.6186668681150396E9, 2021-04-17 16:41:08.115
178.0, -60.40312576293945, -115.21884155273438, -213.42860412597656, -5.003986358642578, 0.0, 0.0, 0.0, 0.0, 0.0, 0.0, 0.0, 0.0, 1.618666868115769E9, 2021-04-17 16:41:08.115
178.0, -57.57575988769531, -108.13920593261719, -212.8526611328125, 1.5333589315414429, 0.0, 0.0, 0.0, 0.0, 0.0, 0.0, 0.0, 0.0, 1.618666868115769E9, 2021-04-17 16:41:08.115
179.0, -30.36798858642578, -98.23595428466797, -190.71994018554688, -35.36823272705078, 0.0, 0.0, 0.0, 0.0, 0.0, 0.0, 0.0, 0.0, 1.618666868129437E9, 2021-04-17 16:41:08.129
179.0, -28.296083450317383, -123.82434844970703, -200.3015594482422, -43.15470504760742, 0.0, 0.0, 0.0, 0.0, 0.0, 0.0, 0.0, 0.0, 1.618666868129437E9, 2021-04-17 16:41:08.129
180.0, -76.26029968261719, -130.80299377441406, -224.7156219482422, 3.0106194019317627, 0.0, 0.0, 0.0, 0.0, 0.0, 0.0, 0.0, 0.0, 1.6186668681450467E9, 2021-04-17 16:41:08.145
180.0, -63.76903533935547, -127.0331802368164, -204.77822875976562, 7.2180070877075195, 0.0, 0.0, 0.0, 0.0, 0.0, 0.0, 0.0, 0.0, 1.6186668681450467E9, 2021-04-17 16:41:08.145
181.0, -11.810604095458984, -107.17057037353516, -185.05398559570312, -32.40997314453125, 0.0, 0.0, 0.0, 0.0, 0.0, 0.0, 0.0, 0.0, 1.618666868145759E9, 2021-04-17 16:41:08.145
181.0, -43.15470504760742, -121.28495788574219, -216.31581115722656, -43.222023010253906, 0.0, 0.0, 0.0, 0.0, 0.0, 0.0, 0.0, 0.0, 1.618666868145759E9, 2021-04-17 16:41:08.145
182.0, -68.02877807617188, -108.07189178466797, -206.10214233398438, 1.073351263999939, 0.0, 0.0, 0.0, 0.0, 0.0, 0.0, 0.0, 0.0, 1.6186668681758175E9, 2021-04-17 16:41:08.175
182.0, -79.88426208496094, -116.46796417236328, -206.10214233398438, 5.804324626922607, 0.0, 0.0, 0.0, 0.0, 0.0, 0.0, 0.0, 0.0, 1.6186668681758175E9, 2021-04-17 16:41:08.175
183.0, -40.25254440307617, -124.4002914428711, -75.4188232421875, -48.38682556152344, 0.0, 0.0, 0.0, 0.0, 0.0, 0.0, 0.0, 0.0, 1.618666868176456E9, 2021-04-17 16:41:08.176
183.0, -44.82270050048828, -133.46954345703125, -219.58822631835938, -43.02006912231445, 0.0, 0.0, 0.0, 0.0, 0.0, 0.0, 0.0, 0.0, 1.618666868176456E9, 2021-04-17 16:41:08.176
184.0, -89.20035552978516, -72.09779357910156, -255.3454132080078, 0.19447480142116547, 0.0, 0.0, 0.0, 0.0, 0.0, 0.0, 0.0, 0.0, 1.6186668681772113E9, 2021-04-17 16:41:08.177
184.0, -71.2413558959961, -131.04983520507812, -234.4767608642578, -1.0770912170410156, 0.0, 0.0, 0.0, 0.0, 0.0, 0.0, 0.0, 0.0, 1.6186668681772113E9, 2021-04-17 16:41:08.177
185.0, -37.021270751953125, -118.78670501708984, -227.16152954101562, -39.29887008666992, 0.0, 0.0, 0.0, 0.0, 0.0, 0.0, 0.0, 0.0, 1.6186668682063828E9, 2021-04-17 16:41:08.206
185.0, -57.94974899291992, -117.5562744140625, -211.17718505859375, -38.150718688964844, 0.0, 0.0, 0.0, 0.0, 0.0, 0.0, 0.0, 0.0, 1.6186668682063828E9, 2021-04-17 16:41:08.206
186.0, -103.04546356201172, -113.05343627929688, -204.9278106689453, 10.26602554321289, 0.0, 0.0, 0.0, 0.0, 0.0, 0.0, 0.0, 0.0, 1.618666868206854E9, 2021-04-17 16:41:08.206
186.0, -82.73780822753906, -116.56893920898438, -202.31736755371094, -6.425148010253906, 0.0, 0.0, 0.0, 0.0, 0.0, 0.0, 0.0, 0.0, 1.618666868206854E9, 2021-04-17 16:41:08.206
187.0, -53.054222106933594, -101.03713989257812, -194.91236877441406, -49.10862731933594, 0.0, 0.0, 0.0, 0.0, 0.0, 0.0, 0.0, 0.0, 1.6186668682200463E9, 2021-04-17 16:41:08.220
187.0, -76.52957153320312, -127.89710235595703, -216.3270263671875, -27.31622886657715, 0.0, 0.0, 0.0, 0.0, 0.0, 0.0, 0.0, 0.0, 1.6186668682200463E9, 2021-04-17 16:41:08.220
188.0, -109.31727600097656, -107.43610382080078, -212.9910430908203, 8.598030090332031, 0.0, 0.0, 0.0, 0.0, 0.0, 0.0, 0.0, 0.0, 1.618666868220867E9, 2021-04-17 16:41:08.220
188.0, -97.15885925292969, -115.09168243408203, -210.33944702148438, -6.8253173828125, 0.0, 0.0, 0.0, 0.0, 0.0, 0.0, 0.0, 0.0, 1.618666868220867E9, 2021-04-17 16:41:08.220
189.0, -51.001014709472656, -115.47689056396484, -204.74456787109375, -53.862037658691406, 0.0, 0.0, 0.0, 0.0, 0.0, 0.0, 0.0, 0.0, 1.6186668682515163E9, 2021-04-17 16:41:08.251
189.0, -82.39373779296875, -116.3707275390625, -171.54547119140625, -35.20741653442383, 0.0, 0.0, 0.0, 0.0, 0.0, 0.0, 0.0, 0.0, 1.6186668682515163E9, 2021-04-17 16:41:08.251
190.0, -120.26396179199219, -112.514892578125, -226.0769500732422, 1.1593689918518066, 0.0, 0.0, 0.0, 0.0, 0.0, 0.0, 0.0, 0.0, 1.618666868252281E9, 2021-04-17 16:41:08.252
190.0, -99.86654663085938, -109.39581298828125, -214.94326782226562, -11.073843955993652, 0.0, 0.0, 0.0, 0.0, 0.0, 0.0, 0.0, 0.0, 1.618666868252281E9, 2021-04-17 16:41:08.252
191.0, -64.46465301513672, -123.2558822631836, -211.9700469970703, -53.85456085205078, 0.0, 0.0, 0.0, 0.0, 0.0, 0.0, 0.0, 0.0, 1.6186668682529156E9, 2021-04-17 16:41:08.252
191.0, -88.92733764648438, -119.72541809082031, -190.1327667236328, -33.03079605102539, 0.0, 0.0, 0.0, 0.0, 0.0, 0.0, 0.0, 0.0, 1.6186668682529156E9, 2021-04-17 16:41:08.252
192.0, -141.95164489746094, -105.71949005126953, -211.65216064453125, 14.798784255981445, 0.0, 0.0, 0.0, 0.0, 0.0, 0.0, 0.0, 0.0, 1.6186668682536557E9, 2021-04-17 16:41:08.253
192.0, -101.42234802246094, -97.4842300415039, -234.36082458496094, -16.818330764770508, 0.0, 0.0, 0.0, 0.0, 0.0, 0.0, 0.0, 0.0, 1.6186668682536557E9, 2021-04-17 16:41:08.253
193.0, -88.47107696533203, -89.70523834228516, -234.25611877441406, -51.16557312011719, 0.0, 0.0, 0.0, 0.0, 0.0, 0.0, 0.0, 0.0, 1.618666868264358E9, 2021-04-17 16:41:08.264
193.0, -118.01254272460938, -115.1664810180664, -231.14451599121094, -28.89820671081543, 0.0, 0.0, 0.0, 0.0, 0.0, 0.0, 0.0, 0.0, 1.618666868264358E9, 2021-04-17 16:41:08.264
194.0, -165.59902954101562, -92.25211334228516, -225.276611328125, 14.518291473388672, 0.0, 0.0, 0.0, 0.0, 0.0, 0.0, 0.0, 0.0, 1.6186668682794158E9, 2021-04-17 16:41:08.279
194.0, -134.4381866455078, -92.43536376953125, -218.77293395996094, -16.575237274169922, 0.0, 0.0, 0.0, 0.0, 0.0, 0.0, 0.0, 0.0, 1.6186668682794158E9, 2021-04-17 16:41:08.279
195.0, -114.79997253417969, -99.9899673461914, -219.07960510253906, -54.66611862182617, 0.0, 0.0, 0.0, 0.0, 0.0, 0.0, 0.0, 0.0, 1.6186668682950492E9, 2021-04-17 16:41:08.295
195.0, -160.7521209716797, -98.85303497314453, -224.2182159423828, -21.908334732055664, 0.0, 0.0, 0.0, 0.0, 0.0, 0.0, 0.0, 0.0, 1.6186668682950492E9, 2021-04-17 16:41:08.295
196.0, -184.68374633789062, -90.84217071533203, -224.37904357910156, 4.9628472328186035, 0.0, 0.0, 0.0, 0.0, 0.0, 0.0, 0.0, 0.0, 1.6186668682958887E9, 2021-04-17 16:41:08.295
196.0, -168.29550170898438, -85.72972869873047, -224.31919860839844, -25.977344512939453, 0.0, 0.0, 0.0, 0.0, 0.0, 0.0, 0.0, 0.0, 1.6186668682958887E9, 2021-04-17 16:41:08.295
197.0, -143.11474609375, -94.70549011230469, -214.3411407470703, -63.084632873535156, 0.0, 0.0, 0.0, 0.0, 0.0, 0.0, 0.0, 0.0, 1.6186668683094168E9, 2021-04-17 16:41:08.309
197.0, -211.1659698486328, -93.38156127929688, -210.38058471679688, -23.580068588256836, 0.0, 0.0, 0.0, 0.0, 0.0, 0.0, 0.0, 0.0, 1.6186668683094168E9, 2021-04-17 16:41:08.309
198.0, -233.246337890625, -30.98133087158203, -216.4990692138672, 5.875382900238037, 0.0, 0.0, 0.0, 0.0, 0.0, 0.0, 0.0, 0.0, 1.6186668683250608E9, 2021-04-17 16:41:08.325
198.0, -190.91067504882812, -132.43359375, -187.3727264404297, -38.36763381958008, 0.0, 0.0, 0.0, 0.0, 0.0, 0.0, 0.0, 0.0, 1.6186668683250608E9, 2021-04-17 16:41:08.325
199.0, -169.97097778320312, -124.23573303222656, -225.5384063720703, -61.30818176269531, 0.0, 0.0, 0.0, 0.0, 0.0, 0.0, 0.0, 0.0, 1.6186668683257828E9, 2021-04-17 16:41:08.325
199.0, -226.54818725585938, -72.8719482421875, -238.70285034179688, -18.374128341674805, 0.0, 0.0, 0.0, 0.0, 0.0, 0.0, 0.0, 0.0, 1.6186668683257828E9, 2021-04-17 16:41:08.325
200.0, -258.0082092285156, -88.34765625, -240.0716552734375, 10.165047645568848, 0.0, 0.0, 0.0, 0.0, 0.0, 0.0, 0.0, 0.0, 1.6186668683401272E9, 2021-04-17 16:41:08.340
200.0, -207.9833221435547, -88.21302032470703, -226.02459716796875, -38.016082763671875, 0.0, 0.0, 0.0, 0.0, 0.0, 0.0, 0.0, 0.0, 1.6186668683401272E9, 2021-04-17 16:41:08.340
0.0, -502.93988037109375, -214.27195739746094, -387.481689453125, -178.1295623779297, 0.0, 0.0, 0.0, 0.0, 0.0, 0.0, 0.0, 0.0, 1.6186668683408463E9, 2021-04-17 16:41:08.340
101.0, -562.4192504882812, -208.81544494628906, -395.0661926269531, -125.06786346435547, 0.0, 0.0, 0.0, 0.0, 0.0, 0.0, 0.0, 0.0, 1.618666868354365E9, 2021-04-17 16:41:08.354
101.0, -571.2341918945312, -197.1207733154297, -392.0368957519531, -107.47537231445312, 0.0, 0.0, 0.0, 0.0, 0.0, 0.0, 0.0, 0.0, 1.618666868354365E9, 2021-04-17 16:41:08.354
102.0, -536.9168701171875, -202.61842346191406, -394.26959228515625, -151.6398468017578, 0.0, 0.0, 0.0, 0.0, 0.0, 0.0, 0.0, 0.0, 1.618666868370058E9, 2021-04-17 16:41:08.370
102.0, -528.0982055664062, -206.78094482421875, -389.44140625, -174.77113342285156, 0.0, 0.0, 0.0, 0.0, 0.0, 0.0, 0.0, 0.0, 1.618666868370058E9, 2021-04-17 16:41:08.370
103.0, -601.9500122070312, -195.1797637939453, -397.30267333984375, -127.27440643310547, 0.0, 0.0, 0.0, 0.0, 0.0, 0.0, 0.0, 0.0, 1.618666868370748E9, 2021-04-17 16:41:08.370
103.0, -607.4513549804688, -197.0871124267578, -398.3311462402344, -114.08751678466797, 0.0, 0.0, 0.0, 0.0, 0.0, 0.0, 0.0, 0.0, 1.618666868370748E9, 2021-04-17 16:41:08.370
104.0, -565.8599243164062, -196.9150848388672, -393.1551208496094, -160.1593475341797, 0.0, 0.0, 0.0, 0.0, 0.0, 0.0, 0.0, 0.0, 1.6186668683844547E9, 2021-04-17 16:41:08.384
104.0, -567.98046875, -204.27146911621094, -398.12542724609375, -170.61236572265625, 0.0, 0.0, 0.0, 0.0, 0.0, 0.0, 0.0, 0.0, 1.6186668683844547E9, 2021-04-17 16:41:08.384
105.0, -622.6390991210938, -192.74508666992188, -404.00830078125, -125.56153106689453, 0.0, 0.0, 0.0, 0.0, 0.0, 0.0, 0.0, 0.0, 1.6186668684000762E9, 2021-04-17 16:41:08.400
105.0, -632.1571655273438, -187.92062377929688, -408.3578186035156, -107.73716735839844, 0.0, 0.0, 0.0, 0.0, 0.0, 0.0, 0.0, 0.0, 1.6186668684000762E9, 2021-04-17 16:41:08.400
106.0, -581.279541015625, -195.43408203125, -407.1011962890625, -164.153564453125, 0.0, 0.0, 0.0, 0.0, 0.0, 0.0, 0.0, 0.0, 1.618666868400782E9, 2021-04-17 16:41:08.400
106.0, -601.1720581054688, -195.80433654785156, -416.86981201171875, -165.82528686523438, 0.0, 0.0, 0.0, 0.0, 0.0, 0.0, 0.0, 0.0, 1.618666868400782E9, 2021-04-17 16:41:08.400
107.0, -635.5941162109375, -183.91519165039062, -441.1268005371094, -115.04867553710938, 0.0, 0.0, 0.0, 0.0, 0.0, 0.0, 0.0, 0.0, 1.6186668684143624E9, 2021-04-17 16:41:08.414
107.0, -615.96337890625, -179.96958923339844, -443.58392333984375, -112.59156036376953, 0.0, 0.0, 0.0, 0.0, 0.0, 0.0, 0.0, 0.0, 1.6186668684143624E9, 2021-04-17 16:41:08.414
108.0, -555.7435302734375, -186.68270874023438, -440.9472961425781, -161.35984802246094, 0.0, 0.0, 0.0, 0.0, 0.0, 0.0, 0.0, 0.0, 1.6186668684302597E9, 2021-04-17 16:41:08.430
108.0, -544.7332763671875, -181.9629669189453, -443.3595275878906, -166.3638458251953, 0.0, 0.0, 0.0, 0.0, 0.0, 0.0, 0.0, 0.0, 1.6186668684302597E9, 2021-04-17 16:41:08.430
109.0, -594.036376953125, -174.1503143310547, -449.3396301269531, -113.51531219482422, 0.0, 0.0, 0.0, 0.0, 0.0, 0.0, 0.0, 0.0, 1.6186668684308963E9, 2021-04-17 16:41:08.430
109.0, -581.1748657226562, -178.82518005371094, -440.4012756347656, -119.9329833984375, 0.0, 0.0, 0.0, 0.0, 0.0, 0.0, 0.0, 0.0, 1.6186668684308963E9, 2021-04-17 16:41:08.430
110.0, -524.7322998046875, -177.08987426757812, -435.3486633300781, -173.96331787109375, 0.0, 0.0, 0.0, 0.0, 0.0, 0.0, 0.0, 0.0, 1.6186668684445338E9, 2021-04-17 16:41:08.444
110.0, -545.327880859375, -170.2421112060547, -429.42840576171875, -159.54226684570312, 0.0, 0.0, 0.0, 0.0, 0.0, 0.0, 0.0, 0.0, 1.6186668684445338E9, 2021-04-17 16:41:08.444
111.0, -599.1637573242188, -180.23138427734375, -434.5146789550781, -118.02189636230469, 0.0, 0.0, 0.0, 0.0, 0.0, 0.0, 0.0, 0.0, 1.6186668684599977E9, 2021-04-17 16:41:08.459
111.0, -582.9662475585938, -175.8893585205078, -425.277099609375, -126.0364990234375, 0.0, 0.0, 0.0, 0.0, 0.0, 0.0, 0.0, 0.0, 1.6186668684599977E9, 2021-04-17 16:41:08.459
112.0, -519.7208251953125, -181.5627899169922, -416.4360046386719, -183.649658203125, 0.0, 0.0, 0.0, 0.0, 0.0, 0.0, 0.0, 0.0, 1.6186668684607244E9, 2021-04-17 16:41:08.460
112.0, -552.332763671875, -178.88876342773438, -420.1422424316406, -170.61984252929688, 0.0, 0.0, 0.0, 0.0, 0.0, 0.0, 0.0, 0.0, 1.6186668684607244E9, 2021-04-17 16:41:08.460
113.0, -605.2859497070312, -174.56918334960938, -419.72711181640625, -120.92405700683594, 0.0, 0.0, 0.0, 0.0, 0.0, 0.0, 0.0, 0.0, 1.6186668684743316E9, 2021-04-17 16:41:08.474
113.0, -582.9662475585938, -174.89080810546875, -414.5735168457031, -134.29420471191406, 0.0, 0.0, 0.0, 0.0, 0.0, 0.0, 0.0, 0.0, 1.6186668684743316E9, 2021-04-17 16:41:08.474
114.0, -546.7528076171875, -185.48594665527344, -404.3112487792969, -187.71493530273438, 0.0, 0.0, 0.0, 0.0, 0.0, 0.0, 0.0, 0.0, 1.6186668684902909E9, 2021-04-17 16:41:08.490
114.0, -577.1282958984375, -180.99058532714844, -412.1201477050781, -171.442626953125, 0.0, 0.0, 0.0, 0.0, 0.0, 0.0, 0.0, 0.0, 1.6186668684902909E9, 2021-04-17 16:41:08.490
115.0, -632.6096801757812, -166.46481323242188, -423.5455322265625, -126.94903564453125, 0.0, 0.0, 0.0, 0.0, 0.0, 0.0, 0.0, 0.0, 1.618666868490795E9, 2021-04-17 16:41:08.490
115.0, -601.9873657226562, -171.771728515625, -414.8951416015625, -149.8185272216797, 0.0, 0.0, 0.0, 0.0, 0.0, 0.0, 0.0, 0.0, 1.618666868490795E9, 2021-04-17 16:41:08.490
116.0, -559.2889404296875, -181.6562957763672, -404.5842590332031, -198.4409637451172, 0.0, 0.0, 0.0, 0.0, 0.0, 0.0, 0.0, 0.0, 1.618666868504514E9, 2021-04-17 16:41:08.504
116.0, -591.2875366210938, -182.69972229003906, -407.34429931640625, -177.2095489501953, 0.0, 0.0, 0.0, 0.0, 0.0, 0.0, 0.0, 0.0, 1.618666868504514E9, 2021-04-17 16:41:08.504
117.0, -644.8915405273438, -173.53697204589844, -413.21966552734375, -126.79196166992188, 0.0, 0.0, 0.0, 0.0, 0.0, 0.0, 0.0, 0.0, 1.618666868520034E9, 2021-04-17 16:41:08.520
117.0, -609.0146484375, -179.7900848388672, -403.8512268066406, -147.4549102783203, 0.0, 0.0, 0.0, 0.0, 0.0, 0.0, 0.0, 0.0, 1.618666868520034E9, 2021-04-17 16:41:08.520
118.0, -555.1414184570312, -188.9528350830078, -398.9482116699219, -195.1311492919922, 0.0, 0.0, 0.0, 0.0, 0.0, 0.0, 0.0, 0.0, 1.618666868520744E9, 2021-04-17 16:41:08.520
118.0, -603.1990966796875, -180.49317932128906, -399.864501953125, -158.52127075195312, 0.0, 0.0, 0.0, 0.0, 0.0, 0.0, 0.0, 0.0, 1.618666868520744E9, 2021-04-17 16:41:08.520
119.0, -649.1138916015625, -176.06887817382812, -402.0186767578125, -113.84068298339844, 0.0, 0.0, 0.0, 0.0, 0.0, 0.0, 0.0, 0.0, 1.6186668685344284E9, 2021-04-17 16:41:08.534
119.0, -602.06591796875, -176.4840087890625, -394.77447509765625, -143.93191528320312, 0.0, 0.0, 0.0, 0.0, 0.0, 0.0, 0.0, 0.0, 1.6186668685344284E9, 2021-04-17 16:41:08.534
120.0, -551.5847778320312, -193.11534118652344, -384.3551330566406, -195.45277404785156, 0.0, 0.0, 0.0, 0.0, 0.0, 0.0, 0.0, 0.0, 1.6186668685501437E9, 2021-04-17 16:41:08.550
120.0, -598.2138061523438, -172.3850860595703, -388.09503173828125, -152.14100646972656, 0.0, 0.0, 0.0, 0.0, 0.0, 0.0, 0.0, 0.0, 1.6186668685501437E9, 2021-04-17 16:41:08.550
121.0, -650.41162109375, -165.5821990966797, -393.44683837890625, -108.62726593017578, 0.0, 0.0, 0.0, 0.0, 0.0, 0.0, 0.0, 0.0, 1.618666868550822E9, 2021-04-17 16:41:08.550
121.0, -591.9794311523438, -172.99093627929688, -381.1687316894531, -148.05328369140625, 0.0, 0.0, 0.0, 0.0, 0.0, 0.0, 0.0, 0.0, 1.618666868550822E9, 2021-04-17 16:41:08.550
122.0, -553.9371337890625, -187.3409423828125, -375.97027587890625, -180.0406494140625, 0.0, 0.0, 0.0, 0.0, 0.0, 0.0, 0.0, 0.0, 1.6186668685643184E9, 2021-04-17 16:41:08.564
122.0, -608.1993408203125, -176.5288848876953, -379.0818786621094, -140.13966369628906, 0.0, 0.0, 0.0, 0.0, 0.0, 0.0, 0.0, 0.0, 1.6186668685643184E9, 2021-04-17 16:41:08.564
123.0, -644.9288940429688, -166.70791625976562, -372.8399658203125, -104.24036407470703, 0.0, 0.0, 0.0, 0.0, 0.0, 0.0, 0.0, 0.0, 1.61866686857999E9, 2021-04-17 16:41:08.579
123.0, -595.1957397460938, -173.58558654785156, -370.8802795410156, -144.27598571777344, 0.0, 0.0, 0.0, 0.0, 0.0, 0.0, 0.0, 0.0, 1.61866686857999E9, 2021-04-17 16:41:08.579
124.0, -487.7446594238281, -183.46266174316406, -360.6329345703125, -181.0579071044922, 0.0, 0.0, 0.0, 0.0, 0.0, 0.0, 0.0, 0.0, 1.6186668685807104E9, 2021-04-17 16:41:08.580
124.0, -488.634765625, -175.41439819335938, -361.94189453125, -133.4078369140625, 0.0, 0.0, 0.0, 0.0, 0.0, 0.0, 0.0, 0.0, 1.6186668685807104E9, 2021-04-17 16:41:08.580
125.0, -509.8250427246094, -168.43948364257812, -358.9873962402344, -109.28174591064453, 0.0, 0.0, 0.0, 0.0, 0.0, 0.0, 0.0, 0.0, 1.6186668686107368E9, 2021-04-17 16:41:08.610
125.0, -430.06793212890625, -178.61949157714844, -343.1077575683594, -157.34693908691406, 0.0, 0.0, 0.0, 0.0, 0.0, 0.0, 0.0, 0.0, 1.6186668686107368E9, 2021-04-17 16:41:08.610
126.0, -405.05548095703125, -185.0408935546875, -346.3764343261719, -190.93124389648438, 0.0, 0.0, 0.0, 0.0, 0.0, 0.0, 0.0, 0.0, 1.6186668686114595E9, 2021-04-17 16:41:08.611
126.0, -466.2926025390625, -180.61285400390625, -337.785888671875, -147.79898071289062, 0.0, 0.0, 0.0, 0.0, 0.0, 0.0, 0.0, 0.0, 1.6186668686114595E9, 2021-04-17 16:41:08.611
127.0, -493.82574462890625, -173.66412353515625, -339.4351806640625, -112.01560974121094, 0.0, 0.0, 0.0, 0.0, 0.0, 0.0, 0.0, 0.0, 1.6186668686122408E9, 2021-04-17 16:41:08.612
127.0, -415.0335388183594, -182.35939025878906, -321.6744079589844, -163.2559814453125, 0.0, 0.0, 0.0, 0.0, 0.0, 0.0, 0.0, 0.0, 1.6186668686122408E9, 2021-04-17 16:41:08.612
128.0, -400.33197021484375, -192.2589111328125, -307.608642578125, -173.42477416992188, 0.0, 0.0, 0.0, 0.0, 0.0, 0.0, 0.0, 0.0, 1.6186668686244438E9, 2021-04-17 16:41:08.624
128.0, -462.7882995605469, -184.03860473632812, -314.0936279296875, -125.3782730102539, 0.0, 0.0, 0.0, 0.0, 0.0, 0.0, 0.0, 0.0, 1.6186668686244438E9, 2021-04-17 16:41:08.624
129.0, -485.4034729003906, -176.17733764648438, -307.268310546875, -99.68890380859375, 0.0, 0.0, 0.0, 0.0, 0.0, 0.0, 0.0, 0.0, 1.6186668686400332E9, 2021-04-17 16:41:08.640
129.0, -411.6975402832031, -182.1611785888672, -294.82940673828125, -147.4960479736328, 0.0, 0.0, 0.0, 0.0, 0.0, 0.0, 0.0, 0.0, 1.6186668686400332E9, 2021-04-17 16:41:08.640
130.0, -387.2460632324219, -185.07455444335938, -287.28228759765625, -166.71165466308594, 0.0, 0.0, 0.0, 0.0, 0.0, 0.0, 0.0, 0.0, 1.6186668686407602E9, 2021-04-17 16:41:08.640
130.0, -467.1452941894531, -179.06454467773438, -288.4827880859375, -108.72824096679688, 0.0, 0.0, 0.0, 0.0, 0.0, 0.0, 0.0, 0.0, 1.6186668686407602E9, 2021-04-17 16:41:08.640
131.0, -477.6469421386719, -178.20436096191406, -273.6353759765625, -103.02115631103516, 0.0, 0.0, 0.0, 0.0, 0.0, 0.0, 0.0, 0.0, 1.618666868654317E9, 2021-04-17 16:41:08.654
131.0, -407.38543701171875, -185.82627868652344, -260.6766357421875, -147.24172973632812, 0.0, 0.0, 0.0, 0.0, 0.0, 0.0, 0.0, 0.0, 1.618666868654317E9, 2021-04-17 16:41:08.654
132.0, -397.04833984375, -184.8763427734375, -252.35536193847656, -154.3475341796875, 0.0, 0.0, 0.0, 0.0, 0.0, 0.0, 0.0, 0.0, 1.618666868670075E9, 2021-04-17 16:41:08.670
132.0, -472.4335021972656, -176.03895568847656, -252.8789520263672, -99.72630310058594, 0.0, 0.0, 0.0, 0.0, 0.0, 0.0, 0.0, 0.0, 1.618666868670075E9, 2021-04-17 16:41:08.670
133.0, -478.6866149902344, -179.82374572753906, -249.6514129638672, -82.84439086914062, 0.0, 0.0, 0.0, 0.0, 0.0, 0.0, 0.0, 0.0, 1.6186668686707532E9, 2021-04-17 16:41:08.670
133.0, -396.18817138671875, -188.8555908203125, -231.99160766601562, -146.35537719726562, 0.0, 0.0, 0.0, 0.0, 0.0, 0.0, 0.0, 0.0, 1.6186668686707532E9, 2021-04-17 16:41:08.670
134.0, -402.9761047363281, -197.15443420410156, -238.8505859375, -133.34800720214844, 0.0, 0.0, 0.0, 0.0, 0.0, 0.0, 0.0, 0.0, 1.6186668686846268E9, 2021-04-17 16:41:08.684
134.0, -479.2700500488281, -184.89878845214844, -240.81776428222656, -85.46232604980469, 0.0, 0.0, 0.0, 0.0, 0.0, 0.0, 0.0, 0.0, 1.6186668686846268E9, 2021-04-17 16:41:08.684
135.0, -475.1860656738281, -185.25033569335938, -241.66673278808594, -85.73907470703125, 0.0, 0.0, 0.0, 0.0, 0.0, 0.0, 0.0, 0.0, 1.618666868700163E9, 2021-04-17 16:41:08.700
135.0, -414.67822265625, -178.34274291992188, -225.21864318847656, -128.25799560546875, 0.0, 0.0, 0.0, 0.0, 0.0, 0.0, 0.0, 0.0, 1.618666868700163E9, 2021-04-17 16:41:08.700
136.0, -421.0136413574219, -180.93075561523438, -226.31069946289062, -152.72816467285156, 0.0, 0.0, 0.0, 0.0, 0.0, 0.0, 0.0, 0.0, 1.6186668687008708E9, 2021-04-17 16:41:08.700
136.0, -496.7914733886719, -171.94003295898438, -233.674560546875, -97.0111312866211, 0.0, 0.0, 0.0, 0.0, 0.0, 0.0, 0.0, 0.0, 1.6186668687008708E9, 2021-04-17 16:41:08.700
137.0, -474.5016784667969, -169.69235229492188, -228.8351287841797, -103.06977081298828, 0.0, 0.0, 0.0, 0.0, 0.0, 0.0, 0.0, 0.0, 1.618666868714404E9, 2021-04-17 16:41:08.714
137.0, -414.42767333984375, -173.57810974121094, -218.78976440429688, -153.87631225585938, 0.0, 0.0, 0.0, 0.0, 0.0, 0.0, 0.0, 0.0, 1.618666868714404E9, 2021-04-17 16:41:08.714
138.0, -427.42755126953125, -177.12353515625, -218.32974243164062, -142.01708984375, 0.0, 0.0, 0.0, 0.0, 0.0, 0.0, 0.0, 0.0, 1.6186668687300284E9, 2021-04-17 16:41:08.730
138.0, -500.6136474609375, -165.31666564941406, -220.77938842773438, -83.58863067626953, 0.0, 0.0, 0.0, 0.0, 0.0, 0.0, 0.0, 0.0, 1.6186668687300284E9, 2021-04-17 16:41:08.730
139.0, -479.5131530761719, -165.91505432128906, -212.9555206298828, -90.20451354980469, 0.0, 0.0, 0.0, 0.0, 0.0, 0.0, 0.0, 0.0, 1.6186668687307632E9, 2021-04-17 16:41:08.730
139.0, -397.2690124511719, -182.2920684814453, -200.9093017578125, -146.7667694091797, 0.0, 0.0, 0.0, 0.0, 0.0, 0.0, 0.0, 0.0, 1.6186668687307632E9, 2021-04-17 16:41:08.730
140.0, -437.9516296386719, -183.133544921875, -199.6302490234375, -127.59977722167969, 0.0, 0.0, 0.0, 0.0, 0.0, 0.0, 0.0, 0.0, 1.618666868760839E9, 2021-04-17 16:41:08.760
140.0, -498.6876220703125, -174.4046173095703, -203.59454345703125, -76.81193542480469, 0.0, 0.0, 0.0, 0.0, 0.0, 0.0, 0.0, 0.0, 1.618666868760839E9, 2021-04-17 16:41:08.760
141.0, -482.15350341796875, -173.8548583984375, -197.99591064453125, -93.56668853759766, 0.0, 0.0, 0.0, 0.0, 0.0, 0.0, 0.0, 0.0, 1.6186668687614584E9, 2021-04-17 16:41:08.761
141.0, -403.52960205078125, -190.37025451660156, -188.79202270507812, -152.2344970703125, 0.0, 0.0, 0.0, 0.0, 0.0, 0.0, 0.0, 0.0, 1.6186668687614584E9, 2021-04-17 16:41:08.761
142.0, -443.93548583984375, -184.5808868408203, -191.05091857910156, -130.17657470703125, 0.0, 0.0, 0.0, 0.0, 0.0, 0.0, 0.0, 0.0, 1.6186668687621496E9, 2021-04-17 16:41:08.762
142.0, -521.8525390625, -173.3873748779297, -198.8673095703125, -79.96466827392578, 0.0, 0.0, 0.0, 0.0, 0.0, 0.0, 0.0, 0.0, 1.6186668687621496E9, 2021-04-17 16:41:08.762
143.0, -466.90594482421875, -169.9616241455078, -187.5428924560547, -118.5492172241211, 0.0, 0.0, 0.0, 0.0, 0.0, 0.0, 0.0, 0.0, 1.6186668687745328E9, 2021-04-17 16:41:08.774
143.0, -416.1779479980469, -182.52394104003906, -191.34263610839844, -158.48760986328125, 0.0, 0.0, 0.0, 0.0, 0.0, 0.0, 0.0, 0.0, 1.6186668687745328E9, 2021-04-17 16:41:08.774
144.0, -454.18280029296875, -170.89659118652344, -189.90650939941406, -135.51715087890625, 0.0, 0.0, 0.0, 0.0, 0.0, 0.0, 0.0, 0.0, 1.6186668687900105E9, 2021-04-17 16:41:08.790
144.0, -526.6807861328125, -157.7022247314453, -195.9838409423828, -78.54724884033203, 0.0, 0.0, 0.0, 0.0, 0.0, 0.0, 0.0, 0.0, 1.6186668687900105E9, 2021-04-17 16:41:08.790
145.0, -472.4596862792969, -162.68377685546875, -186.33863830566406, -122.5396957397461, 0.0, 0.0, 0.0, 0.0, 0.0, 0.0, 0.0, 0.0, 1.6186668687907305E9, 2021-04-17 16:41:08.790
145.0, -418.6724548339844, -168.82095336914062, -180.8933563232422, -166.019775390625, 0.0, 0.0, 0.0, 0.0, 0.0, 0.0, 0.0, 0.0, 1.6186668687907305E9, 2021-04-17 16:41:08.790
146.0, -461.7112121582031, -158.35671997070312, -185.0782928466797, -134.85891723632812, 0.0, 0.0, 0.0, 0.0, 0.0, 0.0, 0.0, 0.0, 1.6186668688207724E9, 2021-04-17 16:41:08.820
146.0, -528.3076171875, -153.9735565185547, -189.5736541748047, -77.5599136352539, 0.0, 0.0, 0.0, 0.0, 0.0, 0.0, 0.0, 0.0, 1.6186668688207724E9, 2021-04-17 16:41:08.820
147.0, -469.138671875, -164.80804443359375, -177.0262908935547, -113.4292984008789, 0.0, 0.0, 0.0, 0.0, 0.0, 0.0, 0.0, 0.0, 1.6186668688214529E9, 2021-04-17 16:41:08.821
147.0, -413.9900817871094, -170.66845703125, -167.43345642089844, -154.97958374023438, 0.0, 0.0, 0.0, 0.0, 0.0, 0.0, 0.0, 0.0, 1.6186668688214529E9, 2021-04-17 16:41:08.821
148.0, -474.4156494140625, -168.92193603515625, -173.52200317382812, -111.14421844482422, 0.0, 0.0, 0.0, 0.0, 0.0, 0.0, 0.0, 0.0, 1.6186668688222094E9, 2021-04-17 16:41:08.822
148.0, -515.4610595703125, -155.9631805419922, -178.32029724121094, -64.99758911132812, 0.0, 0.0, 0.0, 0.0, 0.0, 0.0, 0.0, 0.0, 1.6186668688222094E9, 2021-04-17 16:41:08.822
149.0, -465.1182556152344, -174.0194091796875, -169.576416015625, -101.47657775878906, 0.0, 0.0, 0.0, 0.0, 0.0, 0.0, 0.0, 0.0, 1.6186668688344407E9, 2021-04-17 16:41:08.834
149.0, -413.2383728027344, -172.8076934814453, -167.3736114501953, -150.47300720214844, 0.0, 0.0, 0.0, 0.0, 0.0, 0.0, 0.0, 0.0, 1.6186668688344407E9, 2021-04-17 16:41:08.834
150.0, -485.84478759765625, -167.44467163085938, -171.23318481445312, -90.85900115966797, 0.0, 0.0, 0.0, 0.0, 0.0, 0.0, 0.0, 0.0, 1.6186668688663702E9, 2021-04-17 16:41:08.866
150.0, -519.29443359375, -162.10409545898438, -168.07296752929688, -58.280731201171875, 0.0, 0.0, 0.0, 0.0, 0.0, 0.0, 0.0, 0.0, 1.6186668688663702E9, 2021-04-17 16:41:08.866
151.0, -461.9804992675781, -175.62757873535156, -159.1383514404297, -107.92790222167969, 0.0, 0.0, 0.0, 0.0, 0.0, 0.0, 0.0, 0.0, 1.6186668688671713E9, 2021-04-17 16:41:08.867
151.0, -410.7999572753906, -180.94570922851562, -153.0834503173828, -147.1145782470703, 0.0, 0.0, 0.0, 0.0, 0.0, 0.0, 0.0, 0.0, 1.6186668688671713E9, 2021-04-17 16:41:08.867
152.0, -483.9598693847656, -158.9625701904297, -153.89501953125, -110.8001480102539, 0.0, 0.0, 0.0, 0.0, 0.0, 0.0, 0.0, 0.0, 1.618666868867844E9, 2021-04-17 16:41:08.867
152.0, -524.5415649414062, -169.1799774169922, -156.31846618652344, -53.13462829589844, 0.0, 0.0, 0.0, 0.0, 0.0, 0.0, 0.0, 0.0, 1.618666868867844E9, 2021-04-17 16:41:08.867
153.0, -444.55255126953125, -173.16671752929688, -135.90609741210938, -112.88327026367188, 0.0, 0.0, 0.0, 0.0, 0.0, 0.0, 0.0, 0.0, 1.618666868868608E9, 2021-04-17 16:41:08.868
153.0, -413.8666687011719, -177.44142150878906, -133.7631378173828, -125.54283142089844, 0.0, 0.0, 0.0, 0.0, 0.0, 0.0, 0.0, 0.0, 1.618666868868608E9, 2021-04-17 16:41:08.868
154.0, -486.4394226074219, -175.49667358398438, -135.2740478515625, -89.46401977539062, 0.0, 0.0, 0.0, 0.0, 0.0, 0.0, 0.0, 0.0, 1.6186668688793466E9, 2021-04-17 16:41:08.879
154.0, -517.8546142578125, -170.18228149414062, -140.2481231689453, -60.51719284057617, 0.0, 0.0, 0.0, 0.0, 0.0, 0.0, 0.0, 0.0, 1.6186668688793466E9, 2021-04-17 16:41:08.879
155.0, -435.0008544921875, -175.30593872070312, -116.78772735595703, -129.7128143310547, 0.0, 0.0, 0.0, 0.0, 0.0, 0.0, 0.0, 0.0, 1.6186668688943503E9, 2021-04-17 16:41:08.894
155.0, -421.2342834472656, -177.7144317626953, -110.27281951904297, -149.0967254638672, 0.0, 0.0, 0.0, 0.0, 0.0, 0.0, 0.0, 0.0, 1.6186668688943503E9, 2021-04-17 16:41:08.894
156.0, -483.2044372558594, -170.08877563476562, -106.15518951416016, -116.29032135009766, 0.0, 0.0, 0.0, 0.0, 0.0, 0.0, 0.0, 0.0, 1.6186668689101412E9, 2021-04-17 16:41:08.910
156.0, -512.8057250976562, -170.4665069580078, -105.06314086914062, -83.42034149169922, 0.0, 0.0, 0.0, 0.0, 0.0, 0.0, 0.0, 0.0, 1.6186668689101412E9, 2021-04-17 16:41:08.910
157.0, -427.31536865234375, -181.53286743164062, -91.4461669921875, -149.44827270507812, 0.0, 0.0, 0.0, 0.0, 0.0, 0.0, 0.0, 0.0, 1.6186668689107895E9, 2021-04-17 16:41:08.910
157.0, -409.9397888183594, -180.3809814453125, -88.23358917236328, -167.77752685546875, 0.0, 0.0, 0.0, 0.0, 0.0, 0.0, 0.0, 0.0, 1.6186668689107895E9, 2021-04-17 16:41:08.910
158.0, -480.6762390136719, -169.3594970703125, -90.31297302246094, -96.15843963623047, 0.0, 0.0, 0.0, 0.0, 0.0, 0.0, 0.0, 0.0, 1.618666868924624E9, 2021-04-17 16:41:08.924
158.0, -492.9505920410156, -159.6993408203125, -79.63929748535156, -65.68572998046875, 0.0, 0.0, 0.0, 0.0, 0.0, 0.0, 0.0, 0.0, 1.618666868924624E9, 2021-04-17 16:41:08.924
159.0, -417.1615295410156, -165.44007873535156, -70.51020050048828, -125.3333969116211, 0.0, 0.0, 0.0, 0.0, 0.0, 0.0, 0.0, 0.0, 1.6186668689400525E9, 2021-04-17 16:41:08.940
159.0, -399.0155334472656, -172.60572814941406, -61.39232635498047, -143.2811737060547, 0.0, 0.0, 0.0, 0.0, 0.0, 0.0, 0.0, 0.0, 1.6186668689400525E9, 2021-04-17 16:41:08.940
160.0, -485.5755310058594, -169.1986846923828, -64.56002044677734, -74.2089614868164, 0.0, 0.0, 0.0, 0.0, 0.0, 0.0, 0.0, 0.0, 1.618666868940758E9, 2021-04-17 16:41:08.940
160.0, -478.33880615234375, -152.45889282226562, -49.76123809814453, -82.1786880493164, 0.0, 0.0, 0.0, 0.0, 0.0, 0.0, 0.0, 0.0, 1.618666868940758E9, 2021-04-17 16:41:08.940
161.0, -404.93206787109375, -153.33029174804688, -32.838191986083984, -147.8176727294922, 0.0, 0.0, 0.0, 0.0, 0.0, 0.0, 0.0, 0.0, 1.6186668689543712E9, 2021-04-17 16:41:08.954
161.0, -409.3414001464844, -152.02880859375, -27.25826072692871, -127.16968536376953, 0.0, 0.0, 0.0, 0.0, 0.0, 0.0, 0.0, 0.0, 1.6186668689543712E9, 2021-04-17 16:41:08.954
162.0, -494.40167236328125, -137.11033630371094, -39.85798263549805, -74.67645263671875, 0.0, 0.0, 0.0, 0.0, 0.0, 0.0, 0.0, 0.0, 1.6186668689700415E9, 2021-04-17 16:41:08.970
162.0, -471.8987121582031, -135.52462768554688, -23.56324005126953, -83.51383972167969, 0.0, 0.0, 0.0, 0.0, 0.0, 0.0, 0.0, 0.0, 1.6186668689700415E9, 2021-04-17 16:41:08.970
163.0, -394.6585388183594, -146.07113647460938, -7.908018589019775, -149.0106964111328, 0.0, 0.0, 0.0, 0.0, 0.0, 0.0, 0.0, 0.0, 1.618666868970759E9, 2021-04-17 16:41:08.970
163.0, -415.0709228515625, -143.7636260986328, -6.868326187133789, -121.90764617919922, 0.0, 0.0, 0.0, 0.0, 0.0, 0.0, 0.0, 0.0, 1.618666868970759E9, 2021-04-17 16:41:08.970
164.0, -479.4906921386719, -154.46347045898438, -18.323638916015625, -65.96248626708984, 0.0, 0.0, 0.0, 0.0, 0.0, 0.0, 0.0, 0.0, 1.618666868984428E9, 2021-04-17 16:41:08.984
164.0, -462.6910705566406, -134.85891723632812, -7.410611629486084, -65.31548309326172, 0.0, 0.0, 0.0, 0.0, 0.0, 0.0, 0.0, 0.0, 1.618666868984428E9, 2021-04-17 16:41:08.984
165.0, -385.4808349609375, -155.67893981933594, 11.169211387634277, -150.6637420654297, 0.0, 0.0, 0.0, 0.0, 0.0, 0.0, 0.0, 0.0, 1.6186668690164256E9, 2021-04-17 16:41:09.016
165.0, -414.618408203125, -148.77508544921875, 9.983662605285645, -92.0333251953125, 0.0, 0.0, 0.0, 0.0, 0.0, 0.0, 0.0, 0.0, 1.6186668690164256E9, 2021-04-17 16:41:09.016
166.0, -460.1554260253906, -150.7123565673828, -6.370919704437256, -75.62638854980469, 0.0, 0.0, 0.0, 0.0, 0.0, 0.0, 0.0, 0.0, 1.618666869017203E9, 2021-04-17 16:41:09.017
166.0, -456.931640625, -129.57444763183594, 38.18998718261719, -42.94340133666992, 0.0, 0.0, 0.0, 0.0, 0.0, 0.0, 0.0, 0.0, 1.618666869017203E9, 2021-04-17 16:41:09.017
167.0, -378.56201171875, -142.0731964111328, 53.92374801635742, -139.904052734375, 0.0, 0.0, 0.0, 0.0, 0.0, 0.0, 0.0, 0.0, 1.6186668690179E9, 2021-04-17 16:41:09.017
167.0, -415.3065490722656, -137.83963012695312, 50.9280891418457, -92.08194732666016, 0.0, 0.0, 0.0, 0.0, 0.0, 0.0, 0.0, 0.0, 1.6186668690179E9, 2021-04-17 16:41:09.017
168.0, -484.4385986328125, -135.1132354736328, 53.16828918457031, -37.92819595336914, 0.0, 0.0, 0.0, 0.0, 0.0, 0.0, 0.0, 0.0, 1.6186668690186346E9, 2021-04-17 16:41:09.018
168.0, -444.6273498535156, -137.78726196289062, 57.52153015136719, -79.10823059082031, 0.0, 0.0, 0.0, 0.0, 0.0, 0.0, 0.0, 0.0, 1.6186668690186346E9, 2021-04-17 16:41:09.018
169.0, -376.0600280761719, -148.2814178466797, 67.91097259521484, -104.53955078125, 0.0, 0.0, 0.0, 0.0, 0.0, 0.0, 0.0, 0.0, 1.6186668690293252E9, 2021-04-17 16:41:09.029
169.0, -409.8874206542969, -143.22882080078125, 73.49464416503906, -100.5790023803711, 0.0, 0.0, 0.0, 0.0, 0.0, 0.0, 0.0, 0.0, 1.6186668690293252E9, 2021-04-17 16:41:09.029
170.0, -480.560302734375, -129.2079315185547, 69.89685821533203, -49.18903350830078, 0.0, 0.0, 0.0, 0.0, 0.0, 0.0, 0.0, 0.0, 1.6186668690445836E9, 2021-04-17 16:41:09.044
170.0, -426.1036376953125, -131.08535766601562, 85.36134338378906, -66.11956024169922, 0.0, 0.0, 0.0, 0.0, 0.0, 0.0, 0.0, 0.0, 1.6186668690445836E9, 2021-04-17 16:41:09.044
171.0, -371.9012756347656, -143.44573974609375, 90.7879409790039, -121.08486938476562, 0.0, 0.0, 0.0, 0.0, 0.0, 0.0, 0.0, 0.0, 1.6186668690601528E9, 2021-04-17 16:41:09.060
171.0, -417.90203857421875, -140.75674438476562, 90.73558044433594, -87.18267822265625, 0.0, 0.0, 0.0, 0.0, 0.0, 0.0, 0.0, 0.0, 1.6186668690601528E9, 2021-04-17 16:41:09.060
172.0, -484.01971435546875, -132.12506103515625, 83.81302642822266, -35.15319061279297, 0.0, 0.0, 0.0, 0.0, 0.0, 0.0, 0.0, 0.0, 1.6186668690608025E9, 2021-04-17 16:41:09.060
172.0, -418.50042724609375, -147.099609375, 95.3207015991211, -74.25010681152344, 0.0, 0.0, 0.0, 0.0, 0.0, 0.0, 0.0, 0.0, 1.6186668690608025E9, 2021-04-17 16:41:09.060
173.0, -364.6308898925781, -153.4574432373047, 109.98858642578125, -144.19371032714844, 0.0, 0.0, 0.0, 0.0, 0.0, 0.0, 0.0, 0.0, 1.6186668690743358E9, 2021-04-17 16:41:09.074
173.0, -428.6841735839844, -149.3846893310547, 105.1603775024414, -69.08155822753906, 0.0, 0.0, 0.0, 0.0, 0.0, 0.0, 0.0, 0.0, 1.6186668690743358E9, 2021-04-17 16:41:09.074
174.0, -481.1213073730469, -124.66395568847656, 107.8082275390625, -25.92311668395996, 0.0, 0.0, 0.0, 0.0, 0.0, 0.0, 0.0, 0.0, 1.6186668690900855E9, 2021-04-17 16:41:09.090
174.0, -428.6467590332031, -135.85372924804688, 113.07026672363281, -79.3027114868164, 0.0, 0.0, 0.0, 0.0, 0.0, 0.0, 0.0, 0.0, 1.6186668690900855E9, 2021-04-17 16:41:09.090
175.0, -368.5690002441406, -147.42124938964844, 115.39274597167969, -112.63269805908203, 0.0, 0.0, 0.0, 0.0, 0.0, 0.0, 0.0, 0.0, 1.6186668690907898E9, 2021-04-17 16:41:09.090
175.0, -441.216552734375, -149.53428649902344, 99.67394256591797, -89.32938385009766, 0.0, 0.0, 0.0, 0.0, 0.0, 0.0, 0.0, 0.0, 1.6186668690907898E9, 2021-04-17 16:41:09.090
176.0, -471.89495849609375, -149.399658203125, 88.9815673828125, -17.60931968688965, 0.0, 0.0, 0.0, 0.0, 0.0, 0.0, 0.0, 0.0, 1.6186668691043468E9, 2021-04-17 16:41:09.104
176.0, -413.6161193847656, -122.14326477050781, 123.63922119140625, -70.59248352050781, 0.0, 0.0, 0.0, 0.0, 0.0, 0.0, 0.0, 0.0, 1.6186668691043468E9, 2021-04-17 16:41:09.104
177.0, -356.39190673828125, -174.59161376953125, 101.43917846679688, -135.90235900878906, 0.0, 0.0, 0.0, 0.0, 0.0, 0.0, 0.0, 0.0, 1.618666869120234E9, 2021-04-17 16:41:09.120
177.0, -441.9608154296875, -125.07534790039062, 134.66444396972656, -78.65196228027344, 0.0, 0.0, 0.0, 0.0, 0.0, 0.0, 0.0, 0.0, 1.618666869120234E9, 2021-04-17 16:41:09.120
178.0, -466.4683837890625, -127.64091491699219, 126.54886627197266, -15.432697296142578, 0.0, 0.0, 0.0, 0.0, 0.0, 0.0, 0.0, 0.0, 1.6186668691207795E9, 2021-04-17 16:41:09.120
178.0, -423.7848815917969, -136.841064453125, 128.9685821533203, -50.47182083129883, 0.0, 0.0, 0.0, 0.0, 0.0, 0.0, 0.0, 0.0, 1.6186668691207795E9, 2021-04-17 16:41:09.120
179.0, -377.2418518066406, -138.35572814941406, 135.8350372314453, -108.48140716552734, 0.0, 0.0, 0.0, 0.0, 0.0, 0.0, 0.0, 0.0, 1.6186668691344323E9, 2021-04-17 16:41:09.134
179.0, -462.612548828125, -138.81947326660156, 127.77928924560547, -60.64808654785156, 0.0, 0.0, 0.0, 0.0, 0.0, 0.0, 0.0, 0.0, 1.6186668691344323E9, 2021-04-17 16:41:09.134
180.0, -486.7648010253906, -129.19297790527344, 126.96399688720703, -43.65772247314453, 0.0, 0.0, 0.0, 0.0, 0.0, 0.0, 0.0, 0.0, 1.6186668691667123E9, 2021-04-17 16:41:09.166
180.0, -418.4555358886719, -139.2682647705078, 143.30361938476562, -96.1247787475586, 0.0, 0.0, 0.0, 0.0, 0.0, 0.0, 0.0, 0.0, 1.6186668691667123E9, 2021-04-17 16:41:09.166
181.0, -390.1482238769531, -133.38914489746094, 144.33956909179688, -116.68675231933594, 0.0, 0.0, 0.0, 0.0, 0.0, 0.0, 0.0, 0.0, 1.6186668691671884E9, 2021-04-17 16:41:09.167
181.0, -472.4073181152344, -142.46961975097656, 134.87388610839844, -61.9682731628418, 0.0, 0.0, 0.0, 0.0, 0.0, 0.0, 0.0, 0.0, 1.6186668691671884E9, 2021-04-17 16:41:09.167
182.0, -494.4278564453125, -114.6522445678711, 137.84336853027344, -31.824678421020508, 0.0, 0.0, 0.0, 0.0, 0.0, 0.0, 0.0, 0.0, 1.6186668691679049E9, 2021-04-17 16:41:09.167
182.0, -412.565185546875, -134.6083526611328, 136.40724182128906, -101.25218200683594, 0.0, 0.0, 0.0, 0.0, 0.0, 0.0, 0.0, 0.0, 1.6186668691679049E9, 2021-04-17 16:41:09.167
183.0, -394.4229431152344, -142.32749938964844, 128.75914001464844, -138.29214477539062, 0.0, 0.0, 0.0, 0.0, 0.0, 0.0, 0.0, 0.0, 1.6186668691687956E9, 2021-04-17 16:41:09.168
183.0, -466.5169982910156, -138.366943359375, 106.40576171875, -66.1120834350586, 0.0, 0.0, 0.0, 0.0, 0.0, 0.0, 0.0, 0.0, 1.6186668691687956E9, 2021-04-17 16:41:09.168
184.0, -488.5749206542969, -130.3673095703125, 134.78411865234375, -57.57014846801758, 0.0, 0.0, 0.0, 0.0, 0.0, 0.0, 0.0, 0.0, 1.6186668691793509E9, 2021-04-17 16:41:09.179
184.0, -402.3777160644531, -124.89956665039062, 151.46408081054688, -77.76187133789062, 0.0, 0.0, 0.0, 0.0, 0.0, 0.0, 0.0, 0.0, 1.6186668691793509E9, 2021-04-17 16:41:09.179
185.0, -405.8408508300781, -130.1915283203125, 149.1378631591797, -111.80618286132812, 0.0, 0.0, 0.0, 0.0, 0.0, 0.0, 0.0, 0.0, 1.61866686919446E9, 2021-04-17 16:41:09.194
185.0, -475.6947021484375, -136.68772888183594, 141.16439819335938, -62.15526580810547, 0.0, 0.0, 0.0, 0.0, 0.0, 0.0, 0.0, 0.0, 1.61866686919446E9, 2021-04-17 16:41:09.194
186.0, -474.4979248046875, -130.4495849609375, 125.57275390625, -81.68502807617188, 0.0, 0.0, 0.0, 0.0, 0.0, 0.0, 0.0, 0.0, 1.6186668692101023E9, 2021-04-17 16:41:09.210
186.0, -390.2978210449219, -147.64190673828125, 150.9517059326172, -153.61825561523438, 0.0, 0.0, 0.0, 0.0, 0.0, 0.0, 0.0, 0.0, 1.6186668692101023E9, 2021-04-17 16:41:09.210
187.0, -394.03399658203125, -127.83912658691406, 154.2278594970703, -135.89112854003906, 0.0, 0.0, 0.0, 0.0, 0.0, 0.0, 0.0, 0.0, 1.6186668692107482E9, 2021-04-17 16:41:09.210
187.0, -486.7161865234375, -125.82332611083984, 153.35646057128906, -56.141510009765625, 0.0, 0.0, 0.0, 0.0, 0.0, 0.0, 0.0, 0.0, 1.6186668692107482E9, 2021-04-17 16:41:09.210
188.0, -468.9591369628906, -126.25341033935547, 152.62344360351562, -64.04765319824219, 0.0, 0.0, 0.0, 0.0, 0.0, 0.0, 0.0, 0.0, 1.6186668692243676E9, 2021-04-17 16:41:09.224
188.0, -403.9073181152344, -140.18453979492188, 160.15560913085938, -130.64031982421875, 0.0, 0.0, 0.0, 0.0, 0.0, 0.0, 0.0, 0.0, 1.6186668692243676E9, 2021-04-17 16:41:09.224
189.0, -389.0262756347656, -160.5445556640625, 121.38032531738281, -132.4840850830078, 0.0, 0.0, 0.0, 0.0, 0.0, 0.0, 0.0, 0.0, 1.6186668692400362E9, 2021-04-17 16:41:09.240
189.0, -474.4343566894531, -155.0768280029297, 138.09767150878906, -140.1546173095703, 0.0, 0.0, 0.0, 0.0, 0.0, 0.0, 0.0, 0.0, 1.6186668692400362E9, 2021-04-17 16:41:09.240
190.0, -449.8407897949219, -139.65347290039062, 134.5111083984375, -103.40636444091797, 0.0, 0.0, 0.0, 0.0, 0.0, 0.0, 0.0, 0.0, 1.6186668692407663E9, 2021-04-17 16:41:09.240
190.0, -404.16912841796875, -118.56791687011719, 168.74615478515625, -55.38604736328125, 0.0, 0.0, 0.0, 0.0, 0.0, 0.0, 0.0, 0.0, 1.6186668692407663E9, 2021-04-17 16:41:09.240
191.0, -425.7595520019531, -123.7701187133789, 159.65072631835938, -101.3456802368164, 0.0, 0.0, 0.0, 0.0, 0.0, 0.0, 0.0, 0.0, 1.618666869254362E9, 2021-04-17 16:41:09.254
191.0, -501.2045593261719, -120.56876373291016, 152.12977600097656, -50.161407470703125, 0.0, 0.0, 0.0, 0.0, 0.0, 0.0, 0.0, 0.0, 1.618666869254362E9, 2021-04-17 16:41:09.254
192.0, -478.78387451171875, -126.55634307861328, 150.89561462402344, -69.4630355834961, 0.0, 0.0, 0.0, 0.0, 0.0, 0.0, 0.0, 0.0, 1.6186668692700384E9, 2021-04-17 16:41:09.270
192.0, -395.97125244140625, -141.90863037109375, 158.18841552734375, -128.80776977539062, 0.0, 0.0, 0.0, 0.0, 0.0, 0.0, 0.0, 0.0, 1.6186668692700384E9, 2021-04-17 16:41:09.270
193.0, -433.0598449707031, -142.79873657226562, 154.29144287109375, -122.52099609375, 0.0, 0.0, 0.0, 0.0, 0.0, 0.0, 0.0, 0.0, 1.618666869270749E9, 2021-04-17 16:41:09.270
193.0, -493.788330078125, -131.90440368652344, 153.24801635742188, -59.600914001464844, 0.0, 0.0, 0.0, 0.0, 0.0, 0.0, 0.0, 0.0, 1.618666869270749E9, 2021-04-17 16:41:09.270
194.0, -462.0066833496094, -137.88450622558594, 154.1381072998047, -86.62543487548828, 0.0, 0.0, 0.0, 0.0, 0.0, 0.0, 0.0, 0.0, 1.6186668692843592E9, 2021-04-17 16:41:09.284
194.0, -383.8764343261719, -160.13690185546875, 155.68643188476562, -148.2178497314453, 0.0, 0.0, 0.0, 0.0, 0.0, 0.0, 0.0, 0.0, 1.6186668692843592E9, 2021-04-17 16:41:09.284
195.0, -431.4142761230469, -136.1155242919922, 153.58834838867188, -118.08173370361328, 0.0, 0.0, 0.0, 0.0, 0.0, 0.0, 0.0, 0.0, 1.6186668692997758E9, 2021-04-17 16:41:09.299
195.0, -483.78411865234375, -166.55084228515625, 125.56526947021484, -78.51358795166016, 0.0, 0.0, 0.0, 0.0, 0.0, 0.0, 0.0, 0.0, 1.6186668692997758E9, 2021-04-17 16:41:09.299
196.0, -445.8577880859375, -139.58615112304688, 141.56455993652344, -81.57656860351562, 0.0, 0.0, 0.0, 0.0, 0.0, 0.0, 0.0, 0.0, 1.6186668693150468E9, 2021-04-17 16:41:09.315
196.0, -380.0205993652344, -124.57793426513672, 165.7654571533203, -216.8450164794922, 0.0, 0.0, 0.0, 0.0, 0.0, 0.0, 0.0, 0.0, 1.6186668693150468E9, 2021-04-17 16:41:09.315
197.0, -445.124755859375, -133.5836181640625, 157.37686157226562, -57.285919189453125, 0.0, 0.0, 0.0, 0.0, 0.0, 0.0, 0.0, 0.0, 1.6186668693157723E9, 2021-04-17 16:41:09.315
197.0, -500.2733154296875, -131.7622833251953, 147.2791290283203, -39.760746002197266, 0.0, 0.0, 0.0, 0.0, 0.0, 0.0, 0.0, 0.0, 1.6186668693157723E9, 2021-04-17 16:41:09.315
198.0, -443.03790283203125, -129.6417694091797, 156.348388671875, -81.46437072753906, 0.0, 0.0, 0.0, 0.0, 0.0, 0.0, 0.0, 0.0, 1.6186668693300796E9, 2021-04-17 16:41:09.330
198.0, -397.0184326171875, -147.26417541503906, 163.62997436523438, -137.6451416015625, 0.0, 0.0, 0.0, 0.0, 0.0, 0.0, 0.0, 0.0, 1.6186668693300796E9, 2021-04-17 16:41:09.330
199.0, -446.9610595703125, -165.26431274414062, 151.99888610839844, -123.6654052734375, 0.0, 0.0, 0.0, 0.0, 0.0, 0.0, 0.0, 0.0, 1.6186668693308065E9, 2021-04-17 16:41:09.330
199.0, -499.9666442871094, -132.05026245117188, 149.55673217773438, -62.574134826660156, 0.0, 0.0, 0.0, 0.0, 0.0, 0.0, 0.0, 0.0, 1.6186668693308065E9, 2021-04-17 16:41:09.330
200.0, -444.3206787109375, -140.5772247314453, 149.4258270263672, -114.2109375, 0.0, 0.0, 0.0, 0.0, 0.0, 0.0, 0.0, 0.0, 1.618666869345053E9, 2021-04-17 16:41:09.345
200.0, -392.2874450683594, -157.75833129882812, 149.83348083496094, -153.42752075195312, 0.0, 0.0, 0.0, 0.0, 0.0, 0.0, 0.0, 0.0, 1.618666869345053E9, 2021-04-17 16:41:09.345
0.0, -436.78851318359375, -157.60311889648438, 142.2601776123047, -184.76040649414062, 0.0, 0.0, 0.0, 0.0, 0.0, 0.0, 0.0, 0.0, 1.6186668693457592E9, 2021-04-17 16:41:09.345
101.0, -485.7699890136719, -151.0433349609375, 140.1920166015625, -51.3506965637207, 0.0, 0.0, 0.0, 0.0, 0.0, 0.0, 0.0, 0.0, 1.618666869359414E9, 2021-04-17 16:41:09.359
101.0, -437.2073974609375, -133.6228790283203, 135.30770874023438, -99.67768096923828, 0.0, 0.0, 0.0, 0.0, 0.0, 0.0, 0.0, 0.0, 1.618666869359414E9, 2021-04-17 16:41:09.359
102.0, -383.4051818847656, -143.14840698242188, 160.81008911132812, -140.25186157226562, 0.0, 0.0, 0.0, 0.0, 0.0, 0.0, 0.0, 0.0, 1.6186668693752353E9, 2021-04-17 16:41:09.375
102.0, -456.18365478515625, -137.57969665527344, 148.1243438720703, -91.64437866210938, 0.0, 0.0, 0.0, 0.0, 0.0, 0.0, 0.0, 0.0, 1.6186668693752353E9, 2021-04-17 16:41:09.375
103.0, -481.6785583496094, -125.24925231933594, 142.37611389160156, -56.429481506347656, 0.0, 0.0, 0.0, 0.0, 0.0, 0.0, 0.0, 0.0, 1.6186668693758972E9, 2021-04-17 16:41:09.375
103.0, -422.35626220703125, -142.41165161132812, 143.95436096191406, -117.89099884033203, 0.0, 0.0, 0.0, 0.0, 0.0, 0.0, 0.0, 0.0, 1.6186668693758972E9, 2021-04-17 16:41:09.375
104.0, -378.150634765625, -160.4940643310547, 128.80776977539062, -156.28106689453125, 0.0, 0.0, 0.0, 0.0, 0.0, 0.0, 0.0, 0.0, 1.6186668693894646E9, 2021-04-17 16:41:09.389
104.0, -444.99761962890625, -150.0335693359375, 132.55514526367188, -129.08078002929688, 0.0, 0.0, 0.0, 0.0, 0.0, 0.0, 0.0, 0.0, 1.6186668693894646E9, 2021-04-17 16:41:09.389
105.0, -472.2091064453125, -127.76620483398438, 143.37841796875, -50.550357818603516, 0.0, 0.0, 0.0, 0.0, 0.0, 0.0, 0.0, 0.0, 1.6186668694052174E9, 2021-04-17 16:41:09.405
105.0, -400.2646484375, -141.39439392089844, 129.70159912109375, -134.986083984375, 0.0, 0.0, 0.0, 0.0, 0.0, 0.0, 0.0, 0.0, 1.6186668694052174E9, 2021-04-17 16:41:09.405
106.0, -377.8140563964844, -133.82110595703125, 144.41436767578125, -115.42266082763672, 0.0, 0.0, 0.0, 0.0, 0.0, 0.0, 0.0, 0.0, 1.6186668694057434E9, 2021-04-17 16:41:09.405
106.0, -455.6600646972656, -136.6783905029297, 136.36610412597656, -100.38078308105469, 0.0, 0.0, 0.0, 0.0, 0.0, 0.0, 0.0, 0.0, 1.6186668694057434E9, 2021-04-17 16:41:09.405
107.0, -470.64208984375, -182.98208618164062, 97.05227661132812, -88.48416137695312, 0.0, 0.0, 0.0, 0.0, 0.0, 0.0, 0.0, 0.0, 1.6186668694193847E9, 2021-04-17 16:41:09.419
107.0, -389.36285400390625, -126.19918060302734, 140.6183624267578, -161.1878204345703, 0.0, 0.0, 0.0, 0.0, 0.0, 0.0, 0.0, 0.0, 1.6186668694193847E9, 2021-04-17 16:41:09.419
108.0, -381.0340881347656, -118.7418212890625, 136.71017456054688, -119.50662994384766, 0.0, 0.0, 0.0, 0.0, 0.0, 0.0, 0.0, 0.0, 1.618666869435427E9, 2021-04-17 16:41:09.435
108.0, -449.8407897949219, -124.49005126953125, 140.64828491210938, -72.22307586669922, 0.0, 0.0, 0.0, 0.0, 0.0, 0.0, 0.0, 0.0, 1.618666869435427E9, 2021-04-17 16:41:09.435
109.0, -471.15447998046875, -122.16383361816406, 124.82476806640625, -56.11906814575195, 0.0, 0.0, 0.0, 0.0, 0.0, 0.0, 0.0, 0.0, 1.6186668694359524E9, 2021-04-17 16:41:09.435
109.0, -387.8444519042969, -137.34034729003906, 128.77037048339844, -114.98509216308594, 0.0, 0.0, 0.0, 0.0, 0.0, 0.0, 0.0, 0.0, 1.6186668694359524E9, 2021-04-17 16:41:09.435
110.0, -384.171875, -144.71168518066406, 127.31928253173828, -137.07293701171875, 0.0, 0.0, 0.0, 0.0, 0.0, 0.0, 0.0, 0.0, 1.6186668694494371E9, 2021-04-17 16:41:09.449
110.0, -434.443603515625, -135.51527404785156, 104.7564697265625, -103.3128662109375, 0.0, 0.0, 0.0, 0.0, 0.0, 0.0, 0.0, 0.0, 1.6186668694494371E9, 2021-04-17 16:41:09.449
111.0, -463.8915710449219, -129.78948974609375, 108.36173248291016, -65.59971618652344, 0.0, 0.0, 0.0, 0.0, 0.0, 0.0, 0.0, 0.0, 1.618666869481438E9, 2021-04-17 16:41:09.481
111.0, -382.3393249511719, -146.6040802001953, 124.58915710449219, -138.18743896484375, 0.0, 0.0, 0.0, 0.0, 0.0, 0.0, 0.0, 0.0, 1.618666869481438E9, 2021-04-17 16:41:09.481
112.0, -383.3229064941406, -141.5103302001953, 119.02044677734375, -136.23146057128906, 0.0, 0.0, 0.0, 0.0, 0.0, 0.0, 0.0, 0.0, 1.618666869482191E9, 2021-04-17 16:41:09.482
112.0, -458.7005920410156, -129.79696655273438, 100.94924926757812, -77.95634460449219, 0.0, 0.0, 0.0, 0.0, 0.0, 0.0, 0.0, 0.0, 1.618666869482191E9, 2021-04-17 16:41:09.482
113.0, -453.8050842285156, -135.97901916503906, 90.17459869384766, -75.54410552978516, 0.0, 0.0, 0.0, 0.0, 0.0, 0.0, 0.0, 0.0, 1.61866686948288E9, 2021-04-17 16:41:09.482
113.0, -369.1225280761719, -172.80581665039062, 66.64315032958984, -148.01588439941406, 0.0, 0.0, 0.0, 0.0, 0.0, 0.0, 0.0, 0.0, 1.61866686948288E9, 2021-04-17 16:41:09.482
114.0, -365.4910583496094, -114.0632095336914, 111.23023223876953, -144.7434844970703, 0.0, 0.0, 0.0, 0.0, 0.0, 0.0, 0.0, 0.0, 1.6186668694836285E9, 2021-04-17 16:41:09.483
114.0, -470.7131652832031, -118.88020324707031, 83.51009368896484, -98.81002807617188, 0.0, 0.0, 0.0, 0.0, 0.0, 0.0, 0.0, 0.0, 1.6186668694836285E9, 2021-04-17 16:41:09.483
115.0, -447.4846496582031, -141.4691925048828, 70.59248352050781, -29.68919563293457, 0.0, 0.0, 0.0, 0.0, 0.0, 0.0, 0.0, 0.0, 1.6186668694944088E9, 2021-04-17 16:41:09.494
115.0, -369.6311340332031, -137.02993774414062, 93.00196075439453, -138.47540283203125, 0.0, 0.0, 0.0, 0.0, 0.0, 0.0, 0.0, 0.0, 1.6186668694944088E9, 2021-04-17 16:41:09.494
116.0, -383.8390197753906, -132.71783447265625, 84.44132995605469, -105.43338775634766, 0.0, 0.0, 0.0, 0.0, 0.0, 0.0, 0.0, 0.0, 1.618666869509516E9, 2021-04-17 16:41:09.509
116.0, -471.15447998046875, -99.96378326416016, 73.90603637695312, -71.58355712890625, 0.0, 0.0, 0.0, 0.0, 0.0, 0.0, 0.0, 0.0, 1.618666869509516E9, 2021-04-17 16:41:09.509
117.0, -440.36761474609375, -128.09906005859375, 79.60564422607422, -59.50741958618164, 0.0, 0.0, 0.0, 0.0, 0.0, 0.0, 0.0, 0.0, 1.6186668695251484E9, 2021-04-17 16:41:09.525
117.0, -366.4410095214844, -155.0786895751953, 64.23838806152344, -125.08656311035156, 0.0, 0.0, 0.0, 0.0, 0.0, 0.0, 0.0, 0.0, 1.6186668695251484E9, 2021-04-17 16:41:09.525
118.0, -386.32232666015625, -117.29074096679688, 67.08445739746094, -127.79798889160156, 0.0, 0.0, 0.0, 0.0, 0.0, 0.0, 0.0, 0.0, 1.6186668695257716E9, 2021-04-17 16:41:09.525
118.0, -466.0158386230469, -113.0422134399414, 68.24382781982422, -47.008670806884766, 0.0, 0.0, 0.0, 0.0, 0.0, 0.0, 0.0, 0.0, 1.6186668695257716E9, 2021-04-17 16:41:09.525
119.0, -432.31561279296875, -127.58294677734375, 72.31657409667969, -84.83776092529297, 0.0, 0.0, 0.0, 0.0, 0.0, 0.0, 0.0, 0.0, 1.618666869539389E9, 2021-04-17 16:41:09.539
119.0, -354.59674072265625, -131.8090362548828, 72.28665924072266, -153.8875274658203, 0.0, 0.0, 0.0, 0.0, 0.0, 0.0, 0.0, 0.0, 1.618666869539389E9, 2021-04-17 16:41:09.539
120.0, -395.3878479003906, -131.18821716308594, 63.486671447753906, -119.05410766601562, 0.0, 0.0, 0.0, 0.0, 0.0, 0.0, 0.0, 0.0, 1.6186668695552433E9, 2021-04-17 16:41:09.555
120.0, -444.55255126953125, -119.22801208496094, 55.03449630737305, -85.19679260253906, 0.0, 0.0, 0.0, 0.0, 0.0, 0.0, 0.0, 0.0, 1.6186668695552433E9, 2021-04-17 16:41:09.555
121.0, -429.64532470703125, -122.82205200195312, 58.01519775390625, -100.67250061035156, 0.0, 0.0, 0.0, 0.0, 0.0, 0.0, 0.0, 0.0, 1.6186668695558753E9, 2021-04-17 16:41:09.555
121.0, -340.7628479003906, -133.2414093017578, 68.87586975097656, -147.5371856689453, 0.0, 0.0, 0.0, 0.0, 0.0, 0.0, 0.0, 0.0, 1.6186668695558753E9, 2021-04-17 16:41:09.555
122.0, -392.294921875, -137.58343505859375, 57.947879791259766, -165.679443359375, 0.0, 0.0, 0.0, 0.0, 0.0, 0.0, 0.0, 0.0, 1.6186668695694091E9, 2021-04-17 16:41:09.569
122.0, -447.23779296875, -143.93753051757812, 41.1519889831543, -61.5681037902832, 0.0, 0.0, 0.0, 0.0, 0.0, 0.0, 0.0, 0.0, 1.6186668695694091E9, 2021-04-17 16:41:09.569
123.0, -393.1326599121094, -137.29547119140625, 44.719852447509766, -162.96426391601562, 0.0, 0.0, 0.0, 0.0, 0.0, 0.0, 0.0, 0.0, 1.6186668695853117E9, 2021-04-17 16:41:09.585
123.0, -351.29815673828125, -131.6257781982422, 50.9467887878418, -91.8463363647461, 0.0, 0.0, 0.0, 0.0, 0.0, 0.0, 0.0, 0.0, 1.6186668695853117E9, 2021-04-17 16:41:09.585
124.0, -398.93701171875, -118.37531280517578, 65.28182220458984, -103.68685913085938, 0.0, 0.0, 0.0, 0.0, 0.0, 0.0, 0.0, 0.0, 1.6186668695858057E9, 2021-04-17 16:41:09.585
124.0, -446.8451232910156, -102.08431243896484, 50.62141418457031, -52.84291458129883, 0.0, 0.0, 0.0, 0.0, 0.0, 0.0, 0.0, 0.0, 1.6186668695858057E9, 2021-04-17 16:41:09.585
125.0, -387.6649475097656, -112.99359893798828, 31.895736694335938, -78.82025909423828, 0.0, 0.0, 0.0, 0.0, 0.0, 0.0, 0.0, 0.0, 1.618666869599373E9, 2021-04-17 16:41:09.599
125.0, -322.8337707519531, -146.5853729248047, 39.51017379760742, -216.26531982421875, 0.0, 0.0, 0.0, 0.0, 0.0, 0.0, 0.0, 0.0, 1.618666869599373E9, 2021-04-17 16:41:09.599
126.0, -376.9052429199219, -120.46965789794922, 47.476158142089844, -138.26971435546875, 0.0, 0.0, 0.0, 0.0, 0.0, 0.0, 0.0, 0.0, 1.6186668696150455E9, 2021-04-17 16:41:09.615
126.0, -440.6817626953125, -109.93061828613281, 52.07997512817383, -4.336413860321045, 0.0, 0.0, 0.0, 0.0, 0.0, 0.0, 0.0, 0.0, 1.6186668696150455E9, 2021-04-17 16:41:09.615
127.0, -388.5400695800781, -95.22533416748047, 62.93690490722656, -79.11945343017578, 0.0, 0.0, 0.0, 0.0, 0.0, 0.0, 0.0, 0.0, 1.6186668696157663E9, 2021-04-17 16:41:09.615
127.0, -341.0545654296875, -127.40343475341797, 57.042823791503906, -145.42039489746094, 0.0, 0.0, 0.0, 0.0, 0.0, 0.0, 0.0, 0.0, 1.6186668696157663E9, 2021-04-17 16:41:09.615
128.0, -391.3562316894531, -122.29473114013672, 48.47097396850586, -112.56912231445312, 0.0, 0.0, 0.0, 0.0, 0.0, 0.0, 0.0, 0.0, 1.6186668696295407E9, 2021-04-17 16:41:09.629
128.0, -444.021484375, -115.42079162597656, 42.389896392822266, -71.58729553222656, 0.0, 0.0, 0.0, 0.0, 0.0, 0.0, 0.0, 0.0, 1.6186668696295407E9, 2021-04-17 16:41:09.629
129.0, -372.6791687011719, -122.26854705810547, 53.837730407714844, -115.14216613769531, 0.0, 0.0, 0.0, 0.0, 0.0, 0.0, 0.0, 0.0, 1.618666869645049E9, 2021-04-17 16:41:09.645
129.0, -339.56982421875, -135.38438415527344, 46.98623275756836, -153.79029846191406, 0.0, 0.0, 0.0, 0.0, 0.0, 0.0, 0.0, 0.0, 1.618666869645049E9, 2021-04-17 16:41:09.645
130.0, -395.5972595214844, -110.63372039794922, 42.15428161621094, -120.50518798828125, 0.0, 0.0, 0.0, 0.0, 0.0, 0.0, 0.0, 0.0, 1.6186668696457822E9, 2021-04-17 16:41:09.645
130.0, -441.0968933105469, -121.29991149902344, 32.14257049560547, -85.970947265625, 0.0, 0.0, 0.0, 0.0, 0.0, 0.0, 0.0, 0.0, 1.6186668696457822E9, 2021-04-17 16:41:09.645
131.0, -364.48504638671875, -121.32235717773438, 42.625511169433594, -112.0642318725586, 0.0, 0.0, 0.0, 0.0, 0.0, 0.0, 0.0, 0.0, 1.6186668696593878E9, 2021-04-17 16:41:09.659
131.0, -333.9338073730469, -130.51876831054688, 39.93278121948242, -189.78309631347656, 0.0, 0.0, 0.0, 0.0, 0.0, 0.0, 0.0, 0.0, 1.6186668696593878E9, 2021-04-17 16:41:09.659
132.0, -402.75543212890625, -116.17625427246094, 45.83434295654297, -124.70883178710938, 0.0, 0.0, 0.0, 0.0, 0.0, 0.0, 0.0, 0.0, 1.61866686967504E9, 2021-04-17 16:41:09.675
132.0, -417.6813659667969, -136.53253173828125, 20.51896095275879, -81.04176330566406, 0.0, 0.0, 0.0, 0.0, 0.0, 0.0, 0.0, 0.0, 1.61866686967504E9, 2021-04-17 16:41:09.675
133.0, -357.87664794921875, -104.81817626953125, 36.10312271118164, -118.76239013671875, 0.0, 0.0, 0.0, 0.0, 0.0, 0.0, 0.0, 0.0, 1.6186668696757724E9, 2021-04-17 16:41:09.675
133.0, -325.64617919921875, -130.51502990722656, 47.45372009277344, -149.81478881835938, 0.0, 0.0, 0.0, 0.0, 0.0, 0.0, 0.0, 0.0, 1.6186668696757724E9, 2021-04-17 16:41:09.675
134.0, -403.5819396972656, -115.2674560546875, 37.20265579223633, -85.96347045898438, 0.0, 0.0, 0.0, 0.0, 0.0, 0.0, 0.0, 0.0, 1.6186668696894493E9, 2021-04-17 16:41:09.689
134.0, -420.44891357421875, -119.07841491699219, 26.68605613708496, -70.59996032714844, 0.0, 0.0, 0.0, 0.0, 0.0, 0.0, 0.0, 0.0, 1.6186668696894493E9, 2021-04-17 16:41:09.689
135.0, -346.35400390625, -140.4182891845703, 11.790034294128418, -120.17981719970703, 0.0, 0.0, 0.0, 0.0, 0.0, 0.0, 0.0, 0.0, 1.618666869721584E9, 2021-04-17 16:41:09.721
135.0, -320.156005859375, -119.60199737548828, 2.4776837825775146, -165.27178955078125, 0.0, 0.0, 0.0, 0.0, 0.0, 0.0, 0.0, 0.0, 1.618666869721584E9, 2021-04-17 16:41:09.721
136.0, -403.1219482421875, -111.32933807373047, 39.480255126953125, -98.8399429321289, 0.0, 0.0, 0.0, 0.0, 0.0, 0.0, 0.0, 0.0, 1.6186668697221625E9, 2021-04-17 16:41:09.722
136.0, -418.05535888671875, -98.61368560791016, 26.03531265258789, -52.05005645751953, 0.0, 0.0, 0.0, 0.0, 0.0, 0.0, 0.0, 0.0, 1.6186668697221625E9, 2021-04-17 16:41:09.722
137.0, -331.2635192871094, -112.05862426757812, 33.6048698425293, -115.65827941894531, 0.0, 0.0, 0.0, 0.0, 0.0, 0.0, 0.0, 0.0, 1.6186668697228975E9, 2021-04-17 16:41:09.722
137.0, -333.4700622558594, -120.85486602783203, 24.703908920288086, -138.5015869140625, 0.0, 0.0, 0.0, 0.0, 0.0, 0.0, 0.0, 0.0, 1.6186668697228975E9, 2021-04-17 16:41:09.722
138.0, -394.32196044921875, -107.2154541015625, 14.116251945495605, -87.8595962524414, 0.0, 0.0, 0.0, 0.0, 0.0, 0.0, 0.0, 0.0, 1.618666869723657E9, 2021-04-17 16:41:09.723
138.0, -400.46661376953125, -110.05029296875, 9.071126937866211, -82.1375503540039, 0.0, 0.0, 0.0, 0.0, 0.0, 0.0, 0.0, 0.0, 1.618666869723657E9, 2021-04-17 16:41:09.723
139.0, -312.4630432128906, -117.91156768798828, 19.85325813293457, -143.2176055908203, 0.0, 0.0, 0.0, 0.0, 0.0, 0.0, 0.0, 0.0, 1.6186668697345746E9, 2021-04-17 16:41:09.734
139.0, -335.4596862792969, -123.76451110839844, 13.379491806030273, -135.55455017089844, 0.0, 0.0, 0.0, 0.0, 0.0, 0.0, 0.0, 0.0, 1.6186668697345746E9, 2021-04-17 16:41:09.734
140.0, -393.83203125, -99.791748046875, 10.282855033874512, -80.06190490722656, 0.0, 0.0, 0.0, 0.0, 0.0, 0.0, 0.0, 0.0, 1.6186668697493591E9, 2021-04-17 16:41:09.749
140.0, -393.8133239746094, -102.48822021484375, 5.869772911071777, -76.75957489013672, 0.0, 0.0, 0.0, 0.0, 0.0, 0.0, 0.0, 0.0, 1.6186668697493591E9, 2021-04-17 16:41:09.749
141.0, -305.6264953613281, -125.52973937988281, 1.9578375816345215, -146.35537719726562, 0.0, 0.0, 0.0, 0.0, 0.0, 0.0, 0.0, 0.0, 1.6186668697650993E9, 2021-04-17 16:41:09.765
141.0, -310.1891784667969, -138.2117462158203, 3.2069642543792725, -145.27455139160156, 0.0, 0.0, 0.0, 0.0, 0.0, 0.0, 0.0, 0.0, 1.6186668697650993E9, 2021-04-17 16:41:09.765
142.0, -390.4736022949219, -78.24618530273438, 16.04604148864746, -63.41561508178711, 0.0, 0.0, 0.0, 0.0, 0.0, 0.0, 0.0, 0.0, 1.6186668697658143E9, 2021-04-17 16:41:09.765
142.0, -380.8396301269531, -102.00202941894531, 5.566841125488281, -84.92003631591797, 0.0, 0.0, 0.0, 0.0, 0.0, 0.0, 0.0, 0.0, 1.6186668697658143E9, 2021-04-17 16:41:09.765
143.0, -308.805419921875, -119.32524871826172, 10.208057403564453, -129.7315216064453, 0.0, 0.0, 0.0, 0.0, 0.0, 0.0, 0.0, 0.0, 1.6186668697793431E9, 2021-04-17 16:41:09.779
143.0, -320.2831726074219, -121.72252655029297, 5.8473334312438965, -138.67361450195312, 0.0, 0.0, 0.0, 0.0, 0.0, 0.0, 0.0, 0.0, 1.6186668697793431E9, 2021-04-17 16:41:09.779
144.0, -381.4978332519531, -126.7302474975586, -40.10481643676758, -107.56513214111328, 0.0, 0.0, 0.0, 0.0, 0.0, 0.0, 0.0, 0.0, 1.6186668697950785E9, 2021-04-17 16:41:09.795
144.0, -369.0963439941406, -100.4088363647461, 19.879438400268555, -82.80699157714844, 0.0, 0.0, 0.0, 0.0, 0.0, 0.0, 0.0, 0.0, 1.6186668697950785E9, 2021-04-17 16:41:09.795
145.0, -300.7908020019531, -113.2553939819336, 19.404470443725586, -141.75155639648438, 0.0, 0.0, 0.0, 0.0, 0.0, 0.0, 0.0, 0.0, 1.618666869795777E9, 2021-04-17 16:41:09.795
145.0, -319.40802001953125, -121.54300689697266, 14.684717178344727, -138.7446746826172, 0.0, 0.0, 0.0, 0.0, 0.0, 0.0, 0.0, 0.0, 1.618666869795777E9, 2021-04-17 16:41:09.795
146.0, -395.4476623535156, -109.54914855957031, -4.272835731506348, -76.63990020751953, 0.0, 0.0, 0.0, 0.0, 0.0, 0.0, 0.0, 0.0, 1.6186668698094037E9, 2021-04-17 16:41:09.809
146.0, -352.29296875, -111.67715454101562, -0.14398615062236786, -94.62882232666016, 0.0, 0.0, 0.0, 0.0, 0.0, 0.0, 0.0, 0.0, 1.6186668698094037E9, 2021-04-17 16:41:09.809
147.0, -284.0585021972656, -120.55567169189453, 2.2084109783172607, -149.0219268798828, 0.0, 0.0, 0.0, 0.0, 0.0, 0.0, 0.0, 0.0, 1.6186668698250947E9, 2021-04-17 16:41:09.825
147.0, -323.40972900390625, -131.13584899902344, -3.7791688442230225, -120.66226196289062, 0.0, 0.0, 0.0, 0.0, 0.0, 0.0, 0.0, 0.0, 1.6186668698250947E9, 2021-04-17 16:41:09.825
148.0, -391.11688232421875, -109.96054077148438, -21.66337013244629, -67.7613754272461, 0.0, 0.0, 0.0, 0.0, 0.0, 0.0, 0.0, 0.0, 1.6186668698257885E9, 2021-04-17 16:41:09.825
148.0, -348.2426452636719, -113.32270812988281, -1.168718695640564, -94.2997055053711, 0.0, 0.0, 0.0, 0.0, 0.0, 0.0, 0.0, 0.0, 1.6186668698257885E9, 2021-04-17 16:41:09.825
149.0, -278.41497802734375, -156.2193603515625, -31.71622085571289, -163.98526000976562, 0.0, 0.0, 0.0, 0.0, 0.0, 0.0, 0.0, 0.0, 1.6186668698393285E9, 2021-04-17 16:41:09.839
149.0, -311.8010559082031, -94.17816162109375, -8.70087718963623, -130.33364868164062, 0.0, 0.0, 0.0, 0.0, 0.0, 0.0, 0.0, 0.0, 1.6186668698393285E9, 2021-04-17 16:41:09.839
150.0, -382.71331787109375, -83.7513198852539, -10.507248878479004, -59.04740905761719, 0.0, 0.0, 0.0, 0.0, 0.0, 0.0, 0.0, 0.0, 1.6186668698714063E9, 2021-04-17 16:41:09.871
150.0, -343.27606201171875, -121.90577697753906, -23.07705307006836, -100.10777282714844, 0.0, 0.0, 0.0, 0.0, 0.0, 0.0, 0.0, 0.0, 1.6186668698714063E9, 2021-04-17 16:41:09.871
151.0, -267.9731750488281, -106.74422454833984, -11.659137725830078, -134.892578125, 0.0, 0.0, 0.0, 0.0, 0.0, 0.0, 0.0, 0.0, 1.6186668698721616E9, 2021-04-17 16:41:09.872
151.0, -327.949951171875, -121.92821502685547, -18.9856014251709, -101.3456802368164, 0.0, 0.0, 0.0, 0.0, 0.0, 0.0, 0.0, 0.0, 1.6186668698721616E9, 2021-04-17 16:41:09.872
152.0, -390.0248107910156, -96.81852722167969, -24.97692108154297, -67.78007507324219, 0.0, 0.0, 0.0, 0.0, 0.0, 0.0, 0.0, 0.0, 1.6186668698728747E9, 2021-04-17 16:41:09.872
152.0, -325.6387023925781, -108.101806640625, -15.256921768188477, -107.31829833984375, 0.0, 0.0, 0.0, 0.0, 0.0, 0.0, 0.0, 0.0, 1.6186668698728747E9, 2021-04-17 16:41:09.872
153.0, -272.43487548828125, -123.44661712646484, -14.647317886352539, -157.3656463623047, 0.0, 0.0, 0.0, 0.0, 0.0, 0.0, 0.0, 0.0, 1.618666869873608E9, 2021-04-17 16:41:09.873
153.0, -328.3650817871094, -119.34394836425781, -28.469987869262695, -121.32048797607422, 0.0, 0.0, 0.0, 0.0, 0.0, 0.0, 0.0, 0.0, 1.618666869873608E9, 2021-04-17 16:41:09.873
154.0, -382.3580322265625, -104.59378051757812, -31.02433967590332, -75.74606323242188, 0.0, 0.0, 0.0, 0.0, 0.0, 0.0, 0.0, 0.0, 1.6186668698846388E9, 2021-04-17 16:41:09.884
154.0, -311.5542297363281, -108.26262664794922, -25.31725311279297, -112.98050689697266, 0.0, 0.0, 0.0, 0.0, 0.0, 0.0, 0.0, 0.0, 1.6186668698846388E9, 2021-04-17 16:41:09.884
155.0, -270.5050964355469, -143.537353515625, -30.923362731933594, -160.8474884033203, 0.0, 0.0, 0.0, 0.0, 0.0, 0.0, 0.0, 0.0, 1.6186668698993833E9, 2021-04-17 16:41:09.899
155.0, -328.76898193359375, -108.59547424316406, -35.755313873291016, -143.54296875, 0.0, 0.0, 0.0, 0.0, 0.0, 0.0, 0.0, 0.0, 1.6186668698993833E9, 2021-04-17 16:41:09.899
156.0, -379.5605773925781, -104.6050033569336, -32.43802261352539, -44.35334396362305, 0.0, 0.0, 0.0, 0.0, 0.0, 0.0, 0.0, 0.0, 1.6186668699150922E9, 2021-04-17 16:41:09.915
156.0, -310.3948669433594, -100.3714370727539, -28.518606185913086, -87.20137786865234, 0.0, 0.0, 0.0, 0.0, 0.0, 0.0, 0.0, 0.0, 1.6186668699150922E9, 2021-04-17 16:41:09.915
157.0, -270.54248046875, -125.69429779052734, -24.61041259765625, -154.42608642578125, 0.0, 0.0, 0.0, 0.0, 0.0, 0.0, 0.0, 0.0, 1.6186668699158115E9, 2021-04-17 16:41:09.915
157.0, -341.8137512207031, -120.40233612060547, -47.49485778808594, -104.87614440917969, 0.0, 0.0, 0.0, 0.0, 0.0, 0.0, 0.0, 0.0, 1.6186668699158115E9, 2021-04-17 16:41:09.915
158.0, -368.7784423828125, -100.46118927001953, -48.684146881103516, -95.62737274169922, 0.0, 0.0, 0.0, 0.0, 0.0, 0.0, 0.0, 0.0, 1.6186668699294097E9, 2021-04-17 16:41:09.929
158.0, -307.3206787109375, -129.58004760742188, -31.757360458374023, -132.7234344482422, 0.0, 0.0, 0.0, 0.0, 0.0, 0.0, 0.0, 0.0, 1.6186668699294097E9, 2021-04-17 16:41:09.929
159.0, -272.39373779296875, -113.37133026123047, -19.696182250976562, -133.57614135742188, 0.0, 0.0, 0.0, 0.0, 0.0, 0.0, 0.0, 0.0, 1.6186668699450488E9, 2021-04-17 16:41:09.945
159.0, -347.8163146972656, -113.83133697509766, -37.20265579223633, -103.72051239013672, 0.0, 0.0, 0.0, 0.0, 0.0, 0.0, 0.0, 0.0, 1.6186668699450488E9, 2021-04-17 16:41:09.945
160.0, -358.31793212890625, -106.72552490234375, -39.78692626953125, -80.9482650756836, 0.0, 0.0, 0.0, 0.0, 0.0, 0.0, 0.0, 0.0, 1.6186668699457808E9, 2021-04-17 16:41:09.945
160.0, -290.7080383300781, -116.21739196777344, -39.1848030090332, -126.55634307861328, 0.0, 0.0, 0.0, 0.0, 0.0, 0.0, 0.0, 0.0, 1.6186668699457808E9, 2021-04-17 16:41:09.945
161.0, -265.7928161621094, -129.60623168945312, -42.56941223144531, -154.0221710205078, 0.0, 0.0, 0.0, 0.0, 0.0, 0.0, 0.0, 0.0, 1.618666869959516E9, 2021-04-17 16:41:09.959
161.0, -339.816650390625, -122.82205200195312, -64.5450668334961, -112.25496673583984, 0.0, 0.0, 0.0, 0.0, 0.0, 0.0, 0.0, 0.0, 1.618666869959516E9, 2021-04-17 16:41:09.959
162.0, -352.46875, -102.17780303955078, -43.526824951171875, -85.92233276367188, 0.0, 0.0, 0.0, 0.0, 0.0, 0.0, 0.0, 0.0, 1.6186668699752967E9, 2021-04-17 16:41:09.975
162.0, -282.162353515625, -120.60055541992188, -55.25889205932617, -114.05760192871094, 0.0, 0.0, 0.0, 0.0, 0.0, 0.0, 0.0, 0.0, 1.6186668699752967E9, 2021-04-17 16:41:09.975
163.0, -268.87451171875, -111.5948715209961, -49.854736328125, -164.08250427246094, 0.0, 0.0, 0.0, 0.0, 0.0, 0.0, 0.0, 0.0, 1.6186668699758956E9, 2021-04-17 16:41:09.975
163.0, -342.8048400878906, -126.23284149169922, -61.12679672241211, -112.98424530029297, 0.0, 0.0, 0.0, 0.0, 0.0, 0.0, 0.0, 0.0, 1.6186668699758956E9, 2021-04-17 16:41:09.975
164.0, -353.8001403808594, -73.37683868408203, -47.47241973876953, -59.54107666015625, 0.0, 0.0, 0.0, 0.0, 0.0, 0.0, 0.0, 0.0, 1.6186668699893963E9, 2021-04-17 16:41:09.989
164.0, -275.8493957519531, -118.14344024658203, -36.6154899597168, -111.54812622070312, 0.0, 0.0, 0.0, 0.0, 0.0, 0.0, 0.0, 0.0, 1.6186668699893963E9, 2021-04-17 16:41:09.989
165.0, -277.4725341796875, -119.7029800415039, -51.025325775146484, -166.23667907714844, 0.0, 0.0, 0.0, 0.0, 0.0, 0.0, 0.0, 0.0, 1.6186668700050356E9, 2021-04-17 16:41:10.005
165.0, -341.6866149902344, -105.54745483398438, -55.53564453125, -91.14323425292969, 0.0, 0.0, 0.0, 0.0, 0.0, 0.0, 0.0, 0.0, 1.6186668700050356E9, 2021-04-17 16:41:10.005
166.0, -349.25244140625, -105.7494125366211, -58.568702697753906, -88.70855712890625, 0.0, 0.0, 0.0, 0.0, 0.0, 0.0, 0.0, 0.0, 1.6186668700057607E9, 2021-04-17 16:41:10.005
166.0, -268.88946533203125, -119.18687438964844, -52.90275573730469, -149.9456787109375, 0.0, 0.0, 0.0, 0.0, 0.0, 0.0, 0.0, 0.0, 1.6186668700057607E9, 2021-04-17 16:41:10.005
167.0, -262.43438720703125, -118.87271881103516, -61.40728759765625, -156.99539184570312, 0.0, 0.0, 0.0, 0.0, 0.0, 0.0, 0.0, 0.0, 1.6186668700195663E9, 2021-04-17 16:41:10.019
167.0, -337.87939453125, -114.81118774414062, -53.43008041381836, -142.97076416015625, 0.0, 0.0, 0.0, 0.0, 0.0, 0.0, 0.0, 0.0, 1.6186668700195663E9, 2021-04-17 16:41:10.019
168.0, -330.6202392578125, -99.85533142089844, -51.20484161376953, -65.3117446899414, 0.0, 0.0, 0.0, 0.0, 0.0, 0.0, 0.0, 0.0, 1.6186668700353067E9, 2021-04-17 16:41:10.035
168.0, -261.53680419921875, -116.21739196777344, -51.96403884887695, -140.24063110351562, 0.0, 0.0, 0.0, 0.0, 0.0, 0.0, 0.0, 0.0, 1.6186668700353067E9, 2021-04-17 16:41:10.035
169.0, -267.8946533203125, -114.41101837158203, -58.26951217651367, -143.19515991210938, 0.0, 0.0, 0.0, 0.0, 0.0, 0.0, 0.0, 0.0, 1.6186668700357666E9, 2021-04-17 16:41:10.035
169.0, -337.59515380859375, -104.79947662353516, -67.97454833984375, -78.31537628173828, 0.0, 0.0, 0.0, 0.0, 0.0, 0.0, 0.0, 0.0, 1.6186668700357666E9, 2021-04-17 16:41:10.035
170.0, -324.2100524902344, -126.58065032958984, -75.70492553710938, -121.70195770263672, 0.0, 0.0, 0.0, 0.0, 0.0, 0.0, 0.0, 0.0, 1.6186668700495539E9, 2021-04-17 16:41:10.049
170.0, -246.69688415527344, -116.20616912841797, -63.1538200378418, -154.81503295898438, 0.0, 0.0, 0.0, 0.0, 0.0, 0.0, 0.0, 0.0, 1.6186668700495539E9, 2021-04-17 16:41:10.049
171.0, -276.7694396972656, -106.60958862304688, -58.288211822509766, -109.29296875, 0.0, 0.0, 0.0, 0.0, 0.0, 0.0, 0.0, 0.0, 1.6186668700650873E9, 2021-04-17 16:41:10.065
171.0, -347.281494140625, -103.14643859863281, -71.58355712890625, -78.44627380371094, 0.0, 0.0, 0.0, 0.0, 0.0, 0.0, 0.0, 0.0, 1.6186668700650873E9, 2021-04-17 16:41:10.065
172.0, -320.60479736328125, -103.71490478515625, -66.4935531616211, -92.62422943115234, 0.0, 0.0, 0.0, 0.0, 0.0, 0.0, 0.0, 0.0, 1.6186668700657911E9, 2021-04-17 16:41:10.065
172.0, -247.80015563964844, -140.0255889892578, -74.54181671142578, -149.6614532470703, 0.0, 0.0, 0.0, 0.0, 0.0, 0.0, 0.0, 0.0, 1.6186668700657911E9, 2021-04-17 16:41:10.065
173.0, -265.9685974121094, -124.26565551757812, -63.41187286376953, -155.53683471679688, 0.0, 0.0, 0.0, 0.0, 0.0, 0.0, 0.0, 0.0, 1.618666870079364E9, 2021-04-17 16:41:10.079
173.0, -348.6203918457031, -76.53330993652344, -66.40379333496094, -67.83617401123047, 0.0, 0.0, 0.0, 0.0, 0.0, 0.0, 0.0, 0.0, 1.618666870079364E9, 2021-04-17 16:41:10.079
174.0, -313.4615783691406, -102.59293365478516, -69.21245574951172, -90.95249938964844, 0.0, 0.0, 0.0, 0.0, 0.0, 0.0, 0.0, 0.0, 1.6186668700950477E9, 2021-04-17 16:41:10.095
174.0, -232.07762145996094, -116.3894271850586, -62.01689147949219, -152.6197052001953, 0.0, 0.0, 0.0, 0.0, 0.0, 0.0, 0.0, 0.0, 1.6186668700950477E9, 2021-04-17 16:41:10.095
175.0, -279.955810546875, -112.76920318603516, -70.2259750366211, -115.97616577148438, 0.0, 0.0, 0.0, 0.0, 0.0, 0.0, 0.0, 0.0, 1.61866687009575E9, 2021-04-17 16:41:10.095
175.0, -343.5790100097656, -109.20133972167969, -78.88384246826172, -88.29342651367188, 0.0, 0.0, 0.0, 0.0, 0.0, 0.0, 0.0, 0.0, 1.61866687009575E9, 2021-04-17 16:41:10.095
176.0, -299.0629577636719, -107.24536895751953, -68.59537506103516, -90.6832275390625, 0.0, 0.0, 0.0, 0.0, 0.0, 0.0, 0.0, 0.0, 1.6186668701257577E9, 2021-04-17 16:41:10.125
176.0, -238.98521423339844, -143.4139404296875, -74.81482696533203, -153.78656005859375, 0.0, 0.0, 0.0, 0.0, 0.0, 0.0, 0.0, 0.0, 1.6186668701257577E9, 2021-04-17 16:41:10.125
177.0, -273.7774963378906, -97.0167465209961, -56.620216369628906, -115.1159896850586, 0.0, 0.0, 0.0, 0.0, 0.0, 0.0, 0.0, 0.0, 1.6186668701264808E9, 2021-04-17 16:41:10.126
177.0, -344.076416015625, -87.27430725097656, -92.56065368652344, -55.18783187866211, 0.0, 0.0, 0.0, 0.0, 0.0, 0.0, 0.0, 0.0, 1.6186668701264808E9, 2021-04-17 16:41:10.126
178.0, -289.8478698730469, -105.07997131347656, -69.67994689941406, -88.22236633300781, 0.0, 0.0, 0.0, 0.0, 0.0, 0.0, 0.0, 0.0, 1.6186668701272287E9, 2021-04-17 16:41:10.127
178.0, -225.45425415039062, -147.19871520996094, -92.87854766845703, -140.4949493408203, 0.0, 0.0, 0.0, 0.0, 0.0, 0.0, 0.0, 0.0, 1.6186668701272287E9, 2021-04-17 16:41:10.127
179.0, -262.7934265136719, -118.78670501708984, -85.19679260253906, -176.6448211669922, 0.0, 0.0, 0.0, 0.0, 0.0, 0.0, 0.0, 0.0, 1.618666870139318E9, 2021-04-17 16:41:10.139
179.0, -341.2265930175781, -70.02588653564453, -59.42140197753906, -6.053028106689453, 0.0, 0.0, 0.0, 0.0, 0.0, 0.0, 0.0, 0.0, 1.618666870139318E9, 2021-04-17 16:41:10.139
180.0, -284.87005615234375, -101.2129135131836, -44.81709289550781, -95.50395202636719, 0.0, 0.0, 0.0, 0.0, 0.0, 0.0, 0.0, 0.0, 1.6186668701551037E9, 2021-04-17 16:41:10.155
180.0, -237.5303955078125, -105.49884033203125, -60.23295974731445, -116.50723266601562, 0.0, 0.0, 0.0, 0.0, 0.0, 0.0, 0.0, 0.0, 1.6186668701551037E9, 2021-04-17 16:41:10.155
181.0, -291.73651123046875, -107.67919921875, -74.28750610351562, -100.33590698242188, 0.0, 0.0, 0.0, 0.0, 0.0, 0.0, 0.0, 0.0, 1.6186668701558049E9, 2021-04-17 16:41:10.155
181.0, -341.99700927734375, -95.74143981933594, -85.54833984375, -54.787662506103516, 0.0, 0.0, 0.0, 0.0, 0.0, 0.0, 0.0, 0.0, 1.6186668701558049E9, 2021-04-17 16:41:10.155
182.0, -280.5766296386719, -122.18627166748047, -77.37291717529297, -109.3341064453125, 0.0, 0.0, 0.0, 0.0, 0.0, 0.0, 0.0, 0.0, 1.61866687016937E9, 2021-04-17 16:41:10.169
182.0, -222.477294921875, -122.23489379882812, -75.28605651855469, -143.8421630859375, 0.0, 0.0, 0.0, 0.0, 0.0, 0.0, 0.0, 0.0, 1.61866687016937E9, 2021-04-17 16:41:10.169
183.0, -294.7845153808594, -96.64649200439453, -86.15046691894531, -74.1453857421875, 0.0, 0.0, 0.0, 0.0, 0.0, 0.0, 0.0, 0.0, 1.6186668701852713E9, 2021-04-17 16:41:10.185
183.0, -330.87457275390625, -103.09033966064453, -84.56848907470703, -64.48148345947266, 0.0, 0.0, 0.0, 0.0, 0.0, 0.0, 0.0, 0.0, 1.6186668701852713E9, 2021-04-17 16:41:10.185
184.0, -262.5390930175781, -109.01060485839844, -78.16577911376953, -97.36268615722656, 0.0, 0.0, 0.0, 0.0, 0.0, 0.0, 0.0, 0.0, 1.6186668701860063E9, 2021-04-17 16:41:10.186
184.0, -207.91412353515625, -107.08829498291016, -76.28460693359375, -126.70220184326172, 0.0, 0.0, 0.0, 0.0, 0.0, 0.0, 0.0, 0.0, 1.6186668701860063E9, 2021-04-17 16:41:10.186
185.0, -296.5385437011719, -129.6810302734375, -80.1067886352539, -113.4704360961914, 0.0, 0.0, 0.0, 0.0, 0.0, 0.0, 0.0, 0.0, 1.61866687019936E9, 2021-04-17 16:41:10.199
185.0, -320.6309814453125, -95.70404052734375, -82.2160873413086, -60.22174072265625, 0.0, 0.0, 0.0, 0.0, 0.0, 0.0, 0.0, 0.0, 1.61866687019936E9, 2021-04-17 16:41:10.199
186.0, -246.5996551513672, -165.69252014160156, -112.85334777832031, -140.5360870361328, 0.0, 0.0, 0.0, 0.0, 0.0, 0.0, 0.0, 0.0, 1.6186668702151475E9, 2021-04-17 16:41:10.215
186.0, -196.26808166503906, -182.9783477783203, -117.92091369628906, -257.407958984375, 0.0, 0.0, 0.0, 0.0, 0.0, 0.0, 0.0, 0.0, 1.6186668702151475E9, 2021-04-17 16:41:10.215
187.0, -303.7602844238281, -63.35016632080078, -71.8378677368164, -18.877145767211914, 0.0, 0.0, 0.0, 0.0, 0.0, 0.0, 0.0, 0.0, 1.6186668702158237E9, 2021-04-17 16:41:10.215
187.0, -333.1671142578125, -60.52280044555664, -56.74363327026367, -49.19277572631836, 0.0, 0.0, 0.0, 0.0, 0.0, 0.0, 0.0, 0.0, 1.6186668702158237E9, 2021-04-17 16:41:10.215
188.0, -232.7919464111328, -112.09602355957031, -61.41476821899414, -119.6936264038086, 0.0, 0.0, 0.0, 0.0, 0.0, 0.0, 0.0, 0.0, 1.6186668702293353E9, 2021-04-17 16:41:10.229
188.0, -161.2626190185547, -206.3415069580078, -239.4938507080078, -257.6959228515625, 0.0, 0.0, 0.0, 0.0, 0.0, 0.0, 0.0, 0.0, 1.6186668702293353E9, 2021-04-17 16:41:10.229
189.0, -214.69830322265625, 116.68113708496094, 16.4910888671875, -258.51123046875, 0.0, 0.0, 0.0, 0.0, 0.0, 0.0, 0.0, 0.0, 1.618666870245087E9, 2021-04-17 16:41:10.245
189.0, -339.3753662109375, -111.96138763427734, -58.49016571044922, 159.9199981689453, 0.0, 0.0, 0.0, 0.0, 0.0, 0.0, 0.0, 0.0, 1.618666870245087E9, 2021-04-17 16:41:10.245
190.0, -251.4652557373047, -105.1510238647461, -56.358421325683594, -73.49838256835938, 0.0, 0.0, 0.0, 0.0, 0.0, 0.0, 0.0, 0.0, 1.6186668702458525E9, 2021-04-17 16:41:10.245
190.0, -243.86578369140625, -164.7388458251953, -95.04768371582031, -119.13638305664062, 0.0, 0.0, 0.0, 0.0, 0.0, 0.0, 0.0, 0.0, 1.6186668702458525E9, 2021-04-17 16:41:10.245
191.0, -237.34339904785156, -51.00849533081055, -148.45346069335938, -195.44155883789062, 0.0, 0.0, 0.0, 0.0, 0.0, 0.0, 0.0, 0.0, 1.6186668702759378E9, 2021-04-17 16:41:10.275
191.0, -322.2877502441406, 65.54922485351562, -17.788833618164062, 77.78057098388672, 0.0, 0.0, 0.0, 0.0, 0.0, 0.0, 0.0, 0.0, 1.6186668702759378E9, 2021-04-17 16:41:10.275
192.0, -236.9432373046875, -120.74640655517578, -53.75545120239258, -93.67514038085938, 0.0, 0.0, 0.0, 0.0, 0.0, 0.0, 0.0, 0.0, 1.6186668702764766E9, 2021-04-17 16:41:10.276
192.0, -241.8499755859375, -134.8570556640625, -75.68622589111328, -107.1911392211914, 0.0, 0.0, 0.0, 0.0, 0.0, 0.0, 0.0, 0.0, 1.6186668702764766E9, 2021-04-17 16:41:10.276
193.0, -318.6376037597656, -137.63580322265625, -87.4781265258789, -69.6687240600586, 0.0, 0.0, 0.0, 0.0, 0.0, 0.0, 0.0, 0.0, 1.6186668702771995E9, 2021-04-17 16:41:10.277
193.0, -294.8780212402344, -109.32475280761719, -79.60189819335938, -70.82435607910156, 0.0, 0.0, 0.0, 0.0, 0.0, 0.0, 0.0, 0.0, 1.6186668702771995E9, 2021-04-17 16:41:10.277
194.0, -228.9772491455078, -121.3073959350586, -61.2053337097168, -106.0429916381836, 0.0, 0.0, 0.0, 0.0, 0.0, 0.0, 0.0, 0.0, 1.618666870289462E9, 2021-04-17 16:41:10.289
194.0, -220.39044189453125, -133.77996826171875, -72.9785385131836, -128.542236328125, 0.0, 0.0, 0.0, 0.0, 0.0, 0.0, 0.0, 0.0, 1.618666870289462E9, 2021-04-17 16:41:10.289
195.0, -306.4156188964844, -26.89362144470215, -70.60369873046875, -68.28870391845703, 0.0, 0.0, 0.0, 0.0, 0.0, 0.0, 0.0, 0.0, 1.6186668703050284E9, 2021-04-17 16:41:10.305
195.0, -268.2835998535156, -32.2491569519043, -74.25010681152344, -88.94791412353516, 0.0, 0.0, 0.0, 0.0, 0.0, 0.0, 0.0, 0.0, 1.6186668703050284E9, 2021-04-17 16:41:10.305
196.0, -207.02029418945312, -147.8681640625, -96.06120300292969, -205.0904998779297, 0.0, 0.0, 0.0, 0.0, 0.0, 0.0, 0.0, 0.0, 1.6186668703057823E9, 2021-04-17 16:41:10.305
196.0, -199.8434295654297, -76.94096374511719, -71.56485748291016, -85.51842498779297, 0.0, 0.0, 0.0, 0.0, 0.0, 0.0, 0.0, 0.0, 1.6186668703057823E9, 2021-04-17 16:41:10.305
197.0, -308.34539794921875, -28.6102352142334, -52.67462158203125, 19.75602149963379, 0.0, 0.0, 0.0, 0.0, 0.0, 0.0, 0.0, 0.0, 1.6186668703193877E9, 2021-04-17 16:41:10.319
197.0, -274.27117919921875, -75.96110534667969, -49.8435173034668, -66.84883880615234, 0.0, 0.0, 0.0, 0.0, 0.0, 0.0, 0.0, 0.0, 1.6186668703193877E9, 2021-04-17 16:41:10.319
198.0, -189.13609313964844, -151.8848114013672, -137.09912109375, -163.68606567382812, 0.0, 0.0, 0.0, 0.0, 0.0, 0.0, 0.0, 0.0, 1.6186668703350291E9, 2021-04-17 16:41:10.335
198.0, -173.06199645996094, -84.01685333251953, -113.70604705810547, -219.84066772460938, 0.0, 0.0, 0.0, 0.0, 0.0, 0.0, 0.0, 0.0, 1.6186668703350291E9, 2021-04-17 16:41:10.335
199.0, -292.185302734375, -25.057329177856445, -35.91238784790039, -28.17079734802246, 0.0, 0.0, 0.0, 0.0, 0.0, 0.0, 0.0, 0.0, 1.618666870335821E9, 2021-04-17 16:41:10.335
199.0, -259.3751525878906, 28.41950035095215, -36.518253326416016, 10.241716384887695, 0.0, 0.0, 0.0, 0.0, 0.0, 0.0, 0.0, 0.0, 1.618666870335821E9, 2021-04-17 16:41:10.335
200.0, -184.8726043701172, -79.94409942626953, -40.377830505371094, -77.64593505859375, 0.0, 0.0, 0.0, 0.0, 0.0, 0.0, 0.0, 0.0, 1.618666870350176E9, 2021-04-17 16:41:10.350
200.0, -234.6544189453125, -79.43921661376953, -65.07987213134766, -111.32373046875, 0.0, 0.0, 0.0, 0.0, 0.0, 0.0, 0.0, 0.0, 1.618666870350176E9, 2021-04-17 16:41:10.350
0.0, -303.4554748535156, -184.4986114501953, -112.22317504882812, -62.018760681152344, 0.0, 0.0, 0.0, 0.0, 0.0, 0.0, 0.0, 0.0, 1.6186668703508213E9, 2021-04-17 16:41:10.350
101.0, -230.4563751220703, -153.89126586914062, -93.59099578857422, -123.92906188964844, 0.0, 0.0, 0.0, 0.0, 0.0, 0.0, 0.0, 0.0, 1.6186668703644311E9, 2021-04-17 16:41:10.364
101.0, -164.6490936279297, -24.154144287109375, 7.019792079925537, -185.8879852294922, 0.0, 0.0, 0.0, 0.0, 0.0, 0.0, 0.0, 0.0, 1.6186668703644311E9, 2021-04-17 16:41:10.364
102.0, -218.6532440185547, -84.43759155273438, -40.9219856262207, -92.0613784790039, 0.0, 0.0, 0.0, 0.0, 0.0, 0.0, 0.0, 0.0, 1.6186668703800292E9, 2021-04-17 16:41:10.380
102.0, -270.7837219238281, -144.19744873046875, -94.92987823486328, -3.6052634716033936, 0.0, 0.0, 0.0, 0.0, 0.0, 0.0, 0.0, 0.0, 1.6186668703800292E9, 2021-04-17 16:41:10.380
103.0, -250.60694885253906, -112.01935577392578, -110.07273864746094, -76.34257507324219, 0.0, 0.0, 0.0, 0.0, 0.0, 0.0, 0.0, 0.0, 1.618666870380764E9, 2021-04-17 16:41:10.380
103.0, -164.72763061523438, -22.23557472229004, -57.212989807128906, -114.73265075683594, 0.0, 0.0, 0.0, 0.0, 0.0, 0.0, 0.0, 0.0, 1.618666870380764E9, 2021-04-17 16:41:10.380
104.0, -226.61175537109375, -5.933351516723633, -52.35860061645508, -99.40280151367188, 0.0, 0.0, 0.0, 0.0, 0.0, 0.0, 0.0, 0.0, 1.6186668703943636E9, 2021-04-17 16:41:10.394
104.0, -287.7441711425781, -70.50272369384766, -79.91792297363281, -109.47061157226562, 0.0, 0.0, 0.0, 0.0, 0.0, 0.0, 0.0, 0.0, 1.6186668703943636E9, 2021-04-17 16:41:10.394
105.0, -228.3695068359375, -112.4905776977539, -57.80389404296875, -62.572265625, 0.0, 0.0, 0.0, 0.0, 0.0, 0.0, 0.0, 0.0, 1.618666870410078E9, 2021-04-17 16:41:10.410
105.0, -178.8607177734375, -135.03469848632812, -54.49782180786133, -96.12290954589844, 0.0, 0.0, 0.0, 0.0, 0.0, 0.0, 0.0, 0.0, 1.618666870410078E9, 2021-04-17 16:41:10.410
106.0, -248.11244201660156, -71.38908386230469, -77.27754974365234, -98.58002471923828, 0.0, 0.0, 0.0, 0.0, 0.0, 0.0, 0.0, 0.0, 1.6186668704252293E9, 2021-04-17 16:41:10.425
106.0, -294.03094482421875, -149.2799835205078, -100.65567016601562, -100.3714370727539, 0.0, 0.0, 0.0, 0.0, 0.0, 0.0, 0.0, 0.0, 1.6186668704252293E9, 2021-04-17 16:41:10.425
107.0, -214.595458984375, -82.04779815673828, -62.19827651977539, -92.31942749023438, 0.0, 0.0, 0.0, 0.0, 0.0, 0.0, 0.0, 0.0, 1.6186668704257567E9, 2021-04-17 16:41:10.425
107.0, -158.15289306640625, -79.022216796875, -103.83832550048828, -161.94888305664062, 0.0, 0.0, 0.0, 0.0, 0.0, 0.0, 0.0, 0.0, 1.6186668704257567E9, 2021-04-17 16:41:10.425
108.0, -240.22499084472656, -122.5022964477539, -68.04373931884766, -59.868316650390625, 0.0, 0.0, 0.0, 0.0, 0.0, 0.0, 0.0, 0.0, 1.6186668704400487E9, 2021-04-17 16:41:10.440
108.0, -269.022216796875, -84.69938659667969, -125.5484390258789, -5.2657790184021, 0.0, 0.0, 0.0, 0.0, 0.0, 0.0, 0.0, 0.0, 1.6186668704400487E9, 2021-04-17 16:41:10.440
109.0, -178.3408660888672, -119.58517456054688, -104.87053680419922, -168.138427734375, 0.0, 0.0, 0.0, 0.0, 0.0, 0.0, 0.0, 0.0, 1.618666870440781E9, 2021-04-17 16:41:10.440
109.0, -202.08175659179688, -64.07383728027344, -27.342409133911133, -15.363509178161621, 0.0, 0.0, 0.0, 0.0, 0.0, 0.0, 0.0, 0.0, 1.618666870440781E9, 2021-04-17 16:41:10.440
110.0, -270.3611145019531, -103.776611328125, -72.01551055908203, 13.826410293579102, 0.0, 0.0, 0.0, 0.0, 0.0, 0.0, 0.0, 0.0, 1.6186668704545758E9, 2021-04-17 16:41:10.454
110.0, -274.4936828613281, -94.16880798339844, -135.4442138671875, -16.126447677612305, 0.0, 0.0, 0.0, 0.0, 0.0, 0.0, 0.0, 0.0, 1.6186668704545758E9, 2021-04-17 16:41:10.454
111.0, -189.81488037109375, -131.64634704589844, -140.70999145507812, -143.69818115234375, 0.0, 0.0, 0.0, 0.0, 0.0, 0.0, 0.0, 0.0, 1.6186668704701293E9, 2021-04-17 16:41:10.470
111.0, -181.42254638671875, -83.22212219238281, -16.71735191345215, -189.43714904785156, 0.0, 0.0, 0.0, 0.0, 0.0, 0.0, 0.0, 0.0, 1.6186668704701293E9, 2021-04-17 16:41:10.470
112.0, -283.1553039550781, 54.97092056274414, -54.9316520690918, 37.387779235839844, 0.0, 0.0, 0.0, 0.0, 0.0, 0.0, 0.0, 0.0, 1.6186668704707627E9, 2021-04-17 16:41:10.470
112.0, -306.89617919921875, -60.48727035522461, -79.1288070678711, 5.60984992980957, 0.0, 0.0, 0.0, 0.0, 0.0, 0.0, 0.0, 0.0, 1.6186668704707627E9, 2021-04-17 16:41:10.470
113.0, -243.23187255859375, -119.43557739257812, -87.42390441894531, -85.36322021484375, 0.0, 0.0, 0.0, 0.0, 0.0, 0.0, 0.0, 0.0, 1.6186668704845152E9, 2021-04-17 16:41:10.484
113.0, -208.26007080078125, -149.91949462890625, -80.74443817138672, -136.5848846435547, 0.0, 0.0, 0.0, 0.0, 0.0, 0.0, 0.0, 0.0, 1.6186668704845152E9, 2021-04-17 16:41:10.484
114.0, -293.9935302734375, -141.68423461914062, -91.04412078857422, -92.1212158203125, 0.0, 0.0, 0.0, 0.0, 0.0, 0.0, 0.0, 0.0, 1.6186668705001912E9, 2021-04-17 16:41:10.500
114.0, -291.087646484375, -131.38829040527344, -94.82890319824219, -74.83539581298828, 0.0, 0.0, 0.0, 0.0, 0.0, 0.0, 0.0, 0.0, 1.6186668705001912E9, 2021-04-17 16:41:10.500
115.0, -223.4889373779297, -142.8211669921875, -90.6776123046875, -118.3790512084961, 0.0, 0.0, 0.0, 0.0, 0.0, 0.0, 0.0, 0.0, 1.6186668705007784E9, 2021-04-17 16:41:10.500
115.0, -214.82733154296875, -147.1519775390625, -94.79898071289062, -125.33152770996094, 0.0, 0.0, 0.0, 0.0, 0.0, 0.0, 0.0, 0.0, 1.6186668705007784E9, 2021-04-17 16:41:10.500
116.0, -298.9975280761719, -125.35209655761719, -98.47530364990234, -62.557308197021484, 0.0, 0.0, 0.0, 0.0, 0.0, 0.0, 0.0, 0.0, 1.6186668705145388E9, 2021-04-17 16:41:10.514
116.0, -289.73004150390625, -104.23287963867188, -127.14163970947266, -65.05181884765625, 0.0, 0.0, 0.0, 0.0, 0.0, 0.0, 0.0, 0.0, 1.6186668705145388E9, 2021-04-17 16:41:10.514
117.0, -208.91455078125, -125.72982788085938, -119.0821533203125, -174.8852081298828, 0.0, 0.0, 0.0, 0.0, 0.0, 0.0, 0.0, 0.0, 1.6186668705304716E9, 2021-04-17 16:41:10.530
117.0, -221.6002960205078, -33.44779586791992, -62.5311279296875, -70.61305236816406, 0.0, 0.0, 0.0, 0.0, 0.0, 0.0, 0.0, 0.0, 1.6186668705304716E9, 2021-04-17 16:41:10.530
118.0, -285.5787658691406, -89.71085357666016, -82.40495300292969, -92.37552642822266, 0.0, 0.0, 0.0, 0.0, 0.0, 0.0, 0.0, 0.0, 1.6186668705450804E9, 2021-04-17 16:41:10.545
118.0, -286.94757080078125, -61.556884765625, -146.3048858642578, -37.541114807128906, 0.0, 0.0, 0.0, 0.0, 0.0, 0.0, 0.0, 0.0, 1.6186668705450804E9, 2021-04-17 16:41:10.545
119.0, -191.3258056640625, -215.21441650390625, -124.43395233154297, -247.21487426757812, 0.0, 0.0, 0.0, 0.0, 0.0, 0.0, 0.0, 0.0, 1.6186668705457568E9, 2021-04-17 16:41:10.545
119.0, -215.2349853515625, -164.5387725830078, -94.11083984375, -78.0255355834961, 0.0, 0.0, 0.0, 0.0, 0.0, 0.0, 0.0, 0.0, 1.6186668705457568E9, 2021-04-17 16:41:10.545
120.0, -306.3688659667969, -138.86434936523438, -92.83179473876953, -89.61174011230469, 0.0, 0.0, 0.0, 0.0, 0.0, 0.0, 0.0, 0.0, 1.6186668705600812E9, 2021-04-17 16:41:10.560
120.0, -298.9563903808594, -75.02052307128906, -93.78173065185547, -87.21820831298828, 0.0, 0.0, 0.0, 0.0, 0.0, 0.0, 0.0, 0.0, 1.6186668705600812E9, 2021-04-17 16:41:10.560
121.0, -227.00819396972656, -45.35563659667969, -83.50822448730469, -81.54851531982422, 0.0, 0.0, 0.0, 0.0, 0.0, 0.0, 0.0, 0.0, 1.618666870560842E9, 2021-04-17 16:41:10.560
121.0, -247.94415283203125, -128.71426391601562, -105.38664245605469, -115.40957641601562, 0.0, 0.0, 0.0, 0.0, 0.0, 0.0, 0.0, 0.0, 1.618666870560842E9, 2021-04-17 16:41:10.560
122.0, -311.9114074707031, -153.99224853515625, -115.93315887451172, -45.78385543823242, 0.0, 0.0, 0.0, 0.0, 0.0, 0.0, 0.0, 0.0, 1.6186668705744963E9, 2021-04-17 16:41:10.574
122.0, -299.7791748046875, -116.78772735595703, -127.12294006347656, -49.14976501464844, 0.0, 0.0, 0.0, 0.0, 0.0, 0.0, 0.0, 0.0, 1.6186668705744963E9, 2021-04-17 16:41:10.574
123.0, -213.73153686523438, -151.7670135498047, -132.8936004638672, -111.65845489501953, 0.0, 0.0, 0.0, 0.0, 0.0, 0.0, 0.0, 0.0, 1.6186668705897992E9, 2021-04-17 16:41:10.589
123.0, -241.5975341796875, -59.290504455566406, -106.31787872314453, -104.53394317626953, 0.0, 0.0, 0.0, 0.0, 0.0, 0.0, 0.0, 0.0, 1.6186668705897992E9, 2021-04-17 16:41:10.589
124.0, -316.5152282714844, -105.87469482421875, -122.40318298339844, -76.44729614257812, 0.0, 0.0, 0.0, 0.0, 0.0, 0.0, 0.0, 0.0, 1.6186668706050825E9, 2021-04-17 16:41:10.605
124.0, -266.0303039550781, 15.544894218444824, -140.4519500732422, -74.64092254638672, 0.0, 0.0, 0.0, 0.0, 0.0, 0.0, 0.0, 0.0, 1.6186668706050825E9, 2021-04-17 16:41:10.605
125.0, -222.03038024902344, -164.85292053222656, -111.23584747314453, -177.30117797851562, 0.0, 0.0, 0.0, 0.0, 0.0, 0.0, 0.0, 0.0, 1.61866687060586E9, 2021-04-17 16:41:10.605
125.0, -266.5912780761719, -161.68896484375, -116.39690399169922, -43.9326057434082, 0.0, 0.0, 0.0, 0.0, 0.0, 0.0, 0.0, 0.0, 1.61866687060586E9, 2021-04-17 16:41:10.605
126.0, -315.6961669921875, -153.27418518066406, -135.68731689453125, -60.76589584350586, 0.0, 0.0, 0.0, 0.0, 0.0, 0.0, 0.0, 0.0, 1.618666870620074E9, 2021-04-17 16:41:10.620
126.0, -289.879638671875, -209.15203857421875, -154.02029418945312, -115.76860046386719, 0.0, 0.0, 0.0, 0.0, 0.0, 0.0, 0.0, 0.0, 1.618666870620074E9, 2021-04-17 16:41:10.620
127.0, -211.7157440185547, -88.4579849243164, -141.77212524414062, -131.2031707763672, 0.0, 0.0, 0.0, 0.0, 0.0, 0.0, 0.0, 0.0, 1.6186668706208048E9, 2021-04-17 16:41:10.620
127.0, -276.4533996582031, -133.77435302734375, -114.58305358886719, -107.69042205810547, 0.0, 0.0, 0.0, 0.0, 0.0, 0.0, 0.0, 0.0, 1.6186668706208048E9, 2021-04-17 16:41:10.620
128.0, -318.0897216796875, -167.26515197753906, -175.5957794189453, -93.523681640625, 0.0, 0.0, 0.0, 0.0, 0.0, 0.0, 0.0, 0.0, 1.6186668706343756E9, 2021-04-17 16:41:10.634
128.0, -264.8260498046875, -161.70765686035156, -218.82154846191406, -174.54861450195312, 0.0, 0.0, 0.0, 0.0, 0.0, 0.0, 0.0, 0.0, 1.6186668706343756E9, 2021-04-17 16:41:10.634
129.0, -223.25332641601562, -150.1214599609375, -149.28184509277344, -124.14224243164062, 0.0, 0.0, 0.0, 0.0, 0.0, 0.0, 0.0, 0.0, 1.6186668706502967E9, 2021-04-17 16:41:10.650
129.0, -267.847900390625, -110.54582977294922, -102.76870727539062, -121.83472442626953, 0.0, 0.0, 0.0, 0.0, 0.0, 0.0, 0.0, 0.0, 1.6186668706502967E9, 2021-04-17 16:41:10.650
130.0, -336.40399169921875, -76.46786499023438, -147.2248992919922, 4.450480937957764, 0.0, 0.0, 0.0, 0.0, 0.0, 0.0, 0.0, 0.0, 1.6186668706508176E9, 2021-04-17 16:41:10.650
130.0, -290.46307373046875, -79.78515625, -155.50503540039062, -77.93203735351562, 0.0, 0.0, 0.0, 0.0, 0.0, 0.0, 0.0, 0.0, 1.6186668706508176E9, 2021-04-17 16:41:10.650
131.0, -228.13015747070312, -133.22084045410156, -157.55076599121094, -141.48789978027344, 0.0, 0.0, 0.0, 0.0, 0.0, 0.0, 0.0, 0.0, 1.6186668706644063E9, 2021-04-17 16:41:10.664
131.0, -277.28741455078125, -143.5878448486328, -181.4898681640625, -96.6390151977539, 0.0, 0.0, 0.0, 0.0, 0.0, 0.0, 0.0, 0.0, 1.6186668706644063E9, 2021-04-17 16:41:10.664
132.0, -355.3428649902344, -112.31854248046875, -171.32107543945312, -61.88038635253906, 0.0, 0.0, 0.0, 0.0, 0.0, 0.0, 0.0, 0.0, 1.618666870680068E9, 2021-04-17 16:41:10.680
132.0, -292.6434326171875, -115.72933197021484, -172.64874267578125, -25.618314743041992, 0.0, 0.0, 0.0, 0.0, 0.0, 0.0, 0.0, 0.0, 1.618666870680068E9, 2021-04-17 16:41:10.680
133.0, -241.82192993164062, -133.21336364746094, -173.8043670654297, -114.45215606689453, 0.0, 0.0, 0.0, 0.0, 0.0, 0.0, 0.0, 0.0, 1.618666870680791E9, 2021-04-17 16:41:10.680
133.0, -299.5547790527344, -126.04397583007812, -190.8134307861328, -83.92335510253906, 0.0, 0.0, 0.0, 0.0, 0.0, 0.0, 0.0, 0.0, 1.618666870680791E9, 2021-04-17 16:41:10.680
134.0, -354.5799255371094, -125.08282470703125, -200.57456970214844, -54.03407287597656, 0.0, 0.0, 0.0, 0.0, 0.0, 0.0, 0.0, 0.0, 1.6186668706943536E9, 2021-04-17 16:41:10.694
134.0, -288.55572509765625, -134.24183654785156, -194.82635498046875, -102.63407135009766, 0.0, 0.0, 0.0, 0.0, 0.0, 0.0, 0.0, 0.0, 1.6186668706943536E9, 2021-04-17 16:41:10.694
135.0, -258.36724853515625, -151.70343017578125, -199.8452911376953, -134.7373809814453, 0.0, 0.0, 0.0, 0.0, 0.0, 0.0, 0.0, 0.0, 1.6186668707102451E9, 2021-04-17 16:41:10.710
135.0, -312.9099426269531, -137.8657989501953, -206.801513671875, -110.22232818603516, 0.0, 0.0, 0.0, 0.0, 0.0, 0.0, 0.0, 0.0, 1.6186668707102451E9, 2021-04-17 16:41:10.710
136.0, -337.92987060546875, -130.67398071289062, -224.6445770263672, -80.32556915283203, 0.0, 0.0, 0.0, 0.0, 0.0, 0.0, 0.0, 0.0, 1.6186668707108257E9, 2021-04-17 16:41:10.710
136.0, -294.9920959472656, -143.11288452148438, -220.75881958007812, -133.50320434570312, 0.0, 0.0, 0.0, 0.0, 0.0, 0.0, 0.0, 0.0, 1.6186668707108257E9, 2021-04-17 16:41:10.710
137.0, -253.03414916992188, -206.6350860595703, -271.97674560546875, -162.34532165527344, 0.0, 0.0, 0.0, 0.0, 0.0, 0.0, 0.0, 0.0, 1.6186668707243855E9, 2021-04-17 16:41:10.724
137.0, -303.952880859375, -100.16761016845703, -228.57521057128906, -159.79470825195312, 0.0, 0.0, 0.0, 0.0, 0.0, 0.0, 0.0, 0.0, 1.6186668707243855E9, 2021-04-17 16:41:10.724
138.0, -369.50958251953125, -124.26004791259766, -229.54757690429688, -77.6852035522461, 0.0, 0.0, 0.0, 0.0, 0.0, 0.0, 0.0, 0.0, 1.6186668707403498E9, 2021-04-17 16:41:10.740
138.0, -310.419189453125, -138.05279541015625, -221.12905883789062, -121.33357238769531, 0.0, 0.0, 0.0, 0.0, 0.0, 0.0, 0.0, 0.0, 1.6186668707403498E9, 2021-04-17 16:41:10.740
139.0, -288.83245849609375, -147.60824584960938, -237.7790985107422, -165.16146850585938, 0.0, 0.0, 0.0, 0.0, 0.0, 0.0, 0.0, 0.0, 1.6186668707407885E9, 2021-04-17 16:41:10.740
139.0, -356.5470886230469, -158.19589233398438, -261.1946105957031, -131.2069091796875, 0.0, 0.0, 0.0, 0.0, 0.0, 0.0, 0.0, 0.0, 1.6186668707407885E9, 2021-04-17 16:41:10.740
140.0, -376.23394775390625, -154.70657348632812, -262.2193603515625, -91.91178131103516, 0.0, 0.0, 0.0, 0.0, 0.0, 0.0, 0.0, 0.0, 1.6186668707543993E9, 2021-04-17 16:41:10.754
140.0, -317.12481689453125, -145.8766632080078, -283.6863708496094, -147.09774780273438, 0.0, 0.0, 0.0, 0.0, 0.0, 0.0, 0.0, 0.0, 1.6186668707543993E9, 2021-04-17 16:41:10.754
141.0, -302.79351806640625, -158.13980102539062, -284.3296203613281, -161.62725830078125, 0.0, 0.0, 0.0, 0.0, 0.0, 0.0, 0.0, 0.0, 1.6186668707701364E9, 2021-04-17 16:41:10.770
141.0, -362.5870361328125, -149.9008026123047, -300.3588562011719, -112.77294158935547, 0.0, 0.0, 0.0, 0.0, 0.0, 0.0, 0.0, 0.0, 1.6186668707701364E9, 2021-04-17 16:41:10.770
142.0, -393.9161682128906, -134.8065643310547, -325.068359375, -93.16838836669922, 0.0, 0.0, 0.0, 0.0, 0.0, 0.0, 0.0, 0.0, 1.6186668707711036E9, 2021-04-17 16:41:10.771
142.0, -281.5359191894531, -152.97874450683594, -319.0059814453125, -155.50503540039062, 0.0, 0.0, 0.0, 0.0, 0.0, 0.0, 0.0, 0.0, 1.6186668707711036E9, 2021-04-17 16:41:10.771
143.0, -324.61956787109375, -169.50535583496094, -334.8669128417969, -172.2897186279297, 0.0, 0.0, 0.0, 0.0, 0.0, 0.0, 0.0, 0.0, 1.6186668707846224E9, 2021-04-17 16:41:10.784
143.0, -423.6371765136719, -138.3744354248047, -357.63916015625, -111.90528869628906, 0.0, 0.0, 0.0, 0.0, 0.0, 0.0, 0.0, 0.0, 1.6186668707846224E9, 2021-04-17 16:41:10.784
144.0, -411.0972900390625, -134.2642822265625, -368.64569091796875, -101.05209350585938, 0.0, 0.0, 0.0, 0.0, 0.0, 0.0, 0.0, 0.0, 1.6186668708000872E9, 2021-04-17 16:41:10.800
144.0, -358.1216125488281, -118.16027069091797, -379.7195129394531, -149.2668914794922, 0.0, 0.0, 0.0, 0.0, 0.0, 0.0, 0.0, 0.0, 1.6186668708000872E9, 2021-04-17 16:41:10.800
145.0, -366.525146484375, -135.30770874023438, -384.0390930175781, -154.59249877929688, 0.0, 0.0, 0.0, 0.0, 0.0, 0.0, 0.0, 0.0, 1.618666870800825E9, 2021-04-17 16:41:10.800
