%OpenBCI Raw EEG Data
%Number of channels = 4
%Sample Rate = 200 Hz
%Board = OpenBCI_GUI$BoardGanglionBLE
Sample Index, EXG Channel 0, EXG Channel 1, EXG Channel 2, EXG Channel 3, Accel Channel 0, Accel Channel 1, Accel Channel 2, Other, Other, Other, Other, Other, Timestamp, Timestamp (Formatted)
102.0, 4.966587066650391, 8.08940315246582, -46.5617561340332, 40.080509185791016, 0.0, 0.0, 0.0, 0.0, 0.0, 0.0, 0.0, 0.0, 1.6186671300619917E9, 2021-04-17 16:45:30.061
102.0, 14.368695259094238, 18.280630111694336, -39.841156005859375, 22.828350067138672, 0.0, 0.0, 0.0, 0.0, 0.0, 0.0, 0.0, 0.0, 1.6186671300619917E9, 2021-04-17 16:45:30.061
103.0, 4.405601978302002, -7.14694881439209, -22.087848663330078, -33.18413162231445, 0.0, 0.0, 0.0, 0.0, 0.0, 0.0, 0.0, 0.0, 1.6186671300620737E9, 2021-04-17 16:45:30.062
103.0, -7.603216648101807, 20.87986183166504, -41.77842330932617, 45.40986633300781, 0.0, 0.0, 0.0, 0.0, 0.0, 0.0, 0.0, 0.0, 1.6186671300620737E9, 2021-04-17 16:45:30.062
104.0, 18.43396759033203, 29.19365882873535, -5.516352653503418, 19.368942260742188, 0.0, 0.0, 0.0, 0.0, 0.0, 0.0, 0.0, 0.0, 1.6186671300744781E9, 2021-04-17 16:45:30.074
104.0, 10.729772567749023, 1.9784070253372192, -9.398368835449219, 9.839676856994629, 0.0, 0.0, 0.0, 0.0, 0.0, 0.0, 0.0, 0.0, 1.6186671300744781E9, 2021-04-17 16:45:30.074
105.0, -1.682955026626587, 13.373882293701172, -45.87735366821289, 13.60201644897461, 0.0, 0.0, 0.0, 0.0, 0.0, 0.0, 0.0, 0.0, 1.61866713009016E9, 2021-04-17 16:45:30.090
105.0, -3.994213104248047, 11.242138862609863, -40.01319122314453, 16.885648727416992, 0.0, 0.0, 0.0, 0.0, 0.0, 0.0, 0.0, 0.0, 1.61866713009016E9, 2021-04-17 16:45:30.090
106.0, 13.13826847076416, 18.7742977142334, -22.540376663208008, 18.905193328857422, 0.0, 0.0, 0.0, 0.0, 0.0, 0.0, 0.0, 0.0, 1.6186671300908217E9, 2021-04-17 16:45:30.090
106.0, 13.747872352600098, -3.0629780292510986, -31.8377685546875, 1.5408388376235962, 0.0, 0.0, 0.0, 0.0, 0.0, 0.0, 0.0, 0.0, 1.6186671300908217E9, 2021-04-17 16:45:30.090
107.0, 5.093743801116943, 3.283632278442383, -16.53409767150879, -1.9671874046325684, 0.0, 0.0, 0.0, 0.0, 0.0, 0.0, 0.0, 0.0, 1.618667130104416E9, 2021-04-17 16:45:30.104
107.0, 3.485586643218994, -10.785871505737305, -3.941854476928711, 17.244678497314453, 0.0, 0.0, 0.0, 0.0, 0.0, 0.0, 0.0, 0.0, 1.618667130104416E9, 2021-04-17 16:45:30.104
108.0, 5.501392841339111, 13.744132041931152, -50.047340393066406, -0.938714861869812, 0.0, 0.0, 0.0, 0.0, 0.0, 0.0, 0.0, 0.0, 1.6186671301202416E9, 2021-04-17 16:45:30.120
108.0, 14.821223258972168, 19.327802658081055, -50.02116012573242, 3.257452964782715, 0.0, 0.0, 0.0, 0.0, 0.0, 0.0, 0.0, 0.0, 1.6186671301202416E9, 2021-04-17 16:45:30.120
109.0, -10.142608642578125, 14.574390411376953, -53.8508186340332, -0.007479799911379814, 0.0, 0.0, 0.0, 0.0, 0.0, 0.0, 0.0, 0.0, 1.6186671301208389E9, 2021-04-17 16:45:30.120
109.0, 8.512012481689453, 13.807710647583008, -45.372467041015625, 15.457006454467773, 0.0, 0.0, 0.0, 0.0, 0.0, 0.0, 0.0, 0.0, 1.6186671301208389E9, 2021-04-17 16:45:30.120
110.0, 14.488372802734375, 21.511903762817383, -37.82160949707031, 8.635429382324219, 0.0, 0.0, 0.0, 0.0, 0.0, 0.0, 0.0, 0.0, 1.6186671301344235E9, 2021-04-17 16:45:30.134
110.0, 14.765125274658203, 1.2865256071090698, -3.6838014125823975, -15.4495267868042, 0.0, 0.0, 0.0, 0.0, 0.0, 0.0, 0.0, 0.0, 1.6186671301344235E9, 2021-04-17 16:45:30.134
111.0, 17.772005081176758, -9.428287506103516, 12.300531387329102, -65.6838607788086, 0.0, 0.0, 0.0, 0.0, 0.0, 0.0, 0.0, 0.0, 1.6186671301501105E9, 2021-04-17 16:45:30.150
111.0, -0.9723739624023438, 25.364002227783203, -77.39723205566406, 38.636905670166016, 0.0, 0.0, 0.0, 0.0, 0.0, 0.0, 0.0, 0.0, 1.6186671301501105E9, 2021-04-17 16:45:30.150
112.0, 3.6538822650909424, 19.634475708007812, -45.37620544433594, 30.356767654418945, 0.0, 0.0, 0.0, 0.0, 0.0, 0.0, 0.0, 0.0, 1.6186671301508243E9, 2021-04-17 16:45:30.150
112.0, 3.0031397342681885, 17.764524459838867, -63.735374450683594, 8.194120407104492, 0.0, 0.0, 0.0, 0.0, 0.0, 0.0, 0.0, 0.0, 1.6186671301508243E9, 2021-04-17 16:45:30.150
113.0, 0.1869949996471405, 7.307764530181885, -56.259315490722656, -2.9507811069488525, 0.0, 0.0, 0.0, 0.0, 0.0, 0.0, 0.0, 0.0, 1.618667130180822E9, 2021-04-17 16:45:30.180
113.0, 11.320676803588867, -45.00221633911133, -73.24220275878906, -22.473058700561523, 0.0, 0.0, 0.0, 0.0, 0.0, 0.0, 0.0, 0.0, 1.618667130180822E9, 2021-04-17 16:45:30.180
114.0, 18.430227279663086, 60.37320327758789, -5.067564487457275, -14.798784255981445, 0.0, 0.0, 0.0, 0.0, 0.0, 0.0, 0.0, 0.0, 1.6186671301815696E9, 2021-04-17 16:45:30.181
114.0, 4.203647613525391, 34.541717529296875, -20.93596076965332, 39.4372444152832, 0.0, 0.0, 0.0, 0.0, 0.0, 0.0, 0.0, 0.0, 1.6186671301815696E9, 2021-04-17 16:45:30.181
115.0, -3.1938745975494385, 22.775991439819336, -38.76406478881836, 7.573297500610352, 0.0, 0.0, 0.0, 0.0, 0.0, 0.0, 0.0, 0.0, 1.618667130182315E9, 2021-04-17 16:45:30.182
115.0, 1.0770912170410156, 18.407787322998047, -42.71339797973633, 18.49754524230957, 0.0, 0.0, 0.0, 0.0, 0.0, 0.0, 0.0, 0.0, 1.618667130182315E9, 2021-04-17 16:45:30.182
116.0, 8.919661521911621, 30.689619064331055, -22.443140029907227, 7.034751892089844, 0.0, 0.0, 0.0, 0.0, 0.0, 0.0, 0.0, 0.0, 1.6186671301948764E9, 2021-04-17 16:45:30.194
116.0, 17.801923751831055, -3.4332282543182373, -34.70252990722656, -12.513705253601074, 0.0, 0.0, 0.0, 0.0, 0.0, 0.0, 0.0, 0.0, 1.6186671301948764E9, 2021-04-17 16:45:30.194
117.0, 2.7899653911590576, 18.493804931640625, -72.69243621826172, 9.663901329040527, 0.0, 0.0, 0.0, 0.0, 0.0, 0.0, 0.0, 0.0, 1.6186671302101657E9, 2021-04-17 16:45:30.210
117.0, 3.971773862838745, 9.742439270019531, -44.85261917114258, 1.4548211097717285, 0.0, 0.0, 0.0, 0.0, 0.0, 0.0, 0.0, 0.0, 1.6186671302101657E9, 2021-04-17 16:45:30.210
118.0, 19.70553207397461, 25.913766860961914, -46.67769241333008, 18.96503257751465, 0.0, 0.0, 0.0, 0.0, 0.0, 0.0, 0.0, 0.0, 1.6186671302108836E9, 2021-04-17 16:45:30.210
118.0, 4.4729204177856445, 20.042123794555664, -44.04106140136719, -4.2821855545043945, 0.0, 0.0, 0.0, 0.0, 0.0, 0.0, 0.0, 0.0, 1.6186671302108836E9, 2021-04-17 16:45:30.210
119.0, 9.162755012512207, 11.687187194824219, -44.127079010009766, -3.9007155895233154, 0.0, 0.0, 0.0, 0.0, 0.0, 0.0, 0.0, 0.0, 1.6186671302247522E9, 2021-04-17 16:45:30.224
119.0, 0.47122740745544434, 16.80337142944336, -44.23179626464844, 9.5629243850708, 0.0, 0.0, 0.0, 0.0, 0.0, 0.0, 0.0, 0.0, 1.6186671302247522E9, 2021-04-17 16:45:30.224
120.0, 20.816282272338867, 20.98457908630371, -14.727725982666016, -1.9522278308868408, 0.0, 0.0, 0.0, 0.0, 0.0, 0.0, 0.0, 0.0, 1.618667130240203E9, 2021-04-17 16:45:30.240
120.0, 17.39427375793457, 6.170835018157959, -33.98447036743164, -14.185440063476562, 0.0, 0.0, 0.0, 0.0, 0.0, 0.0, 0.0, 0.0, 1.618667130240203E9, 2021-04-17 16:45:30.240
121.0, 4.551458358764648, 21.4146671295166, -56.18451690673828, 2.715167284011841, 0.0, 0.0, 0.0, 0.0, 0.0, 0.0, 0.0, 0.0, 1.618667130240904E9, 2021-04-17 16:45:30.240
121.0, 17.764524459838867, 14.35373592376709, 18.269411087036133, 12.741839408874512, 0.0, 0.0, 0.0, 0.0, 0.0, 0.0, 0.0, 0.0, 1.618667130240904E9, 2021-04-17 16:45:30.240
122.0, 20.958398818969727, 14.682847023010254, -48.19609069824219, 14.237798690795898, 0.0, 0.0, 0.0, 0.0, 0.0, 0.0, 0.0, 0.0, 1.6186671302544484E9, 2021-04-17 16:45:30.254
122.0, 11.425394058227539, 20.700345993041992, -64.32627868652344, -5.759446144104004, 0.0, 0.0, 0.0, 0.0, 0.0, 0.0, 0.0, 0.0, 1.6186671302544484E9, 2021-04-17 16:45:30.254
123.0, 6.997352600097656, 19.40260124206543, -46.17280578613281, 1.9971065521240234, 0.0, 0.0, 0.0, 0.0, 0.0, 0.0, 0.0, 0.0, 1.61866713027017E9, 2021-04-17 16:45:30.270
123.0, 13.06721019744873, 43.17714309692383, -2.199061155319214, 8.74014663696289, 0.0, 0.0, 0.0, 0.0, 0.0, 0.0, 0.0, 0.0, 1.61866713027017E9, 2021-04-17 16:45:30.270
124.0, 25.248064041137695, -3.6314427852630615, 64.28887939453125, -27.708919525146484, 0.0, 0.0, 0.0, 0.0, 0.0, 0.0, 0.0, 0.0, 1.6186671302708666E9, 2021-04-17 16:45:30.270
124.0, 27.20403289794922, 13.044771194458008, -109.57907104492188, 0.2505733072757721, 0.0, 0.0, 0.0, 0.0, 0.0, 0.0, 0.0, 0.0, 1.6186671302708666E9, 2021-04-17 16:45:30.270
125.0, 6.451327323913574, 18.50502586364746, -80.05255889892578, -6.010019302368164, 0.0, 0.0, 0.0, 0.0, 0.0, 0.0, 0.0, 0.0, 1.6186671302846546E9, 2021-04-17 16:45:30.284
125.0, 7.464840412139893, 33.685279846191406, -37.76551055908203, 23.983978271484375, 0.0, 0.0, 0.0, 0.0, 0.0, 0.0, 0.0, 0.0, 1.6186671302846546E9, 2021-04-17 16:45:30.284
126.0, 17.132482528686523, 10.617575645446777, -43.30430221557617, 5.434074401855469, 0.0, 0.0, 0.0, 0.0, 0.0, 0.0, 0.0, 0.0, 1.618667130300113E9, 2021-04-17 16:45:30.300
126.0, 16.627595901489258, 19.99724578857422, -44.029842376708984, -9.686341285705566, 0.0, 0.0, 0.0, 0.0, 0.0, 0.0, 0.0, 0.0, 1.618667130300113E9, 2021-04-17 16:45:30.300
127.0, 8.725186347961426, 11.227179527282715, -51.576961517333984, -9.31609058380127, 0.0, 0.0, 0.0, 0.0, 0.0, 0.0, 0.0, 0.0, 1.6186671303008428E9, 2021-04-17 16:45:30.300
127.0, 23.333236694335938, 25.446279525756836, -54.636199951171875, 6.810358047485352, 0.0, 0.0, 0.0, 0.0, 0.0, 0.0, 0.0, 0.0, 1.6186671303008428E9, 2021-04-17 16:45:30.300
128.0, 25.292943954467773, 36.665977478027344, -23.404293060302734, -0.44504809379577637, 0.0, 0.0, 0.0, 0.0, 0.0, 0.0, 0.0, 0.0, 1.6186671303145304E9, 2021-04-17 16:45:30.314
128.0, 24.713258743286133, 4.985286712646484, -39.4970817565918, -21.276290893554688, 0.0, 0.0, 0.0, 0.0, 0.0, 0.0, 0.0, 0.0, 1.6186671303145304E9, 2021-04-17 16:45:30.314
129.0, 11.80312442779541, 9.50308609008789, -37.159645080566406, -5.9688801765441895, 0.0, 0.0, 0.0, 0.0, 0.0, 0.0, 0.0, 0.0, 1.6186671303301115E9, 2021-04-17 16:45:30.330
129.0, 21.18279266357422, -6.967433452606201, -59.8720588684082, -4.7160139083862305, 0.0, 0.0, 0.0, 0.0, 0.0, 0.0, 0.0, 0.0, 1.6186671303301115E9, 2021-04-17 16:45:30.330
130.0, 45.15555191040039, 64.23278045654297, 12.49500560760498, 1.7278337478637695, 0.0, 0.0, 0.0, 0.0, 0.0, 0.0, 0.0, 0.0, 1.6186671303308628E9, 2021-04-17 16:45:30.330
130.0, 18.923892974853516, 40.031890869140625, -27.51444435119629, -19.533496856689453, 0.0, 0.0, 0.0, 0.0, 0.0, 0.0, 0.0, 0.0, 1.6186671303308628E9, 2021-04-17 16:45:30.330
131.0, 24.952611923217773, 6.690680980682373, 9.667641639709473, -32.6007080078125, 0.0, 0.0, 0.0, 0.0, 0.0, 0.0, 0.0, 0.0, 1.6186671303445015E9, 2021-04-17 16:45:30.344
131.0, 11.627348899841309, 39.19415283203125, -63.701717376708984, 27.361108779907227, 0.0, 0.0, 0.0, 0.0, 0.0, 0.0, 0.0, 0.0, 1.6186671303445015E9, 2021-04-17 16:45:30.344
132.0, 24.96383285522461, 37.32794189453125, -23.213558197021484, 10.46798038482666, 0.0, 0.0, 0.0, 0.0, 0.0, 0.0, 0.0, 0.0, 1.6186671303601763E9, 2021-04-17 16:45:30.360
132.0, 20.124401092529297, 29.706026077270508, -30.319368362426758, -9.233813285827637, 0.0, 0.0, 0.0, 0.0, 0.0, 0.0, 0.0, 0.0, 1.6186671303601763E9, 2021-04-17 16:45:30.360
133.0, 9.63772201538086, 26.605648040771484, -31.142147064208984, -6.391489028930664, 0.0, 0.0, 0.0, 0.0, 0.0, 0.0, 0.0, 0.0, 1.6186671303608956E9, 2021-04-17 16:45:30.360
133.0, 27.596721649169922, 38.446170806884766, 6.630842685699463, -0.9761139154434204, 0.0, 0.0, 0.0, 0.0, 0.0, 0.0, 0.0, 0.0, 1.6186671303608956E9, 2021-04-17 16:45:30.360
134.0, 28.6102352142334, 13.747872352600098, -0.6283031702041626, -12.812897682189941, 0.0, 0.0, 0.0, 0.0, 0.0, 0.0, 0.0, 0.0, 1.618667130374468E9, 2021-04-17 16:45:30.374
134.0, 32.82136154174805, 19.7130126953125, -22.77225112915039, -26.05962371826172, 0.0, 0.0, 0.0, 0.0, 0.0, 0.0, 0.0, 0.0, 1.618667130374468E9, 2021-04-17 16:45:30.374
135.0, 7.663054943084717, 30.083755493164062, -60.691097259521484, -8.710227012634277, 0.0, 0.0, 0.0, 0.0, 0.0, 0.0, 0.0, 0.0, 1.618667130390124E9, 2021-04-17 16:45:30.390
135.0, 18.478845596313477, 21.83353614807129, -27.779977798461914, 6.597183704376221, 0.0, 0.0, 0.0, 0.0, 0.0, 0.0, 0.0, 0.0, 1.618667130390124E9, 2021-04-17 16:45:30.390
136.0, 36.35182571411133, 37.03622817993164, -22.473058700561523, -5.826764106750488, 0.0, 0.0, 0.0, 0.0, 0.0, 0.0, 0.0, 0.0, 1.6186671303908792E9, 2021-04-17 16:45:30.390
136.0, 24.6309814453125, 25.6108341217041, -1.207987666130066, -22.73859214782715, 0.0, 0.0, 0.0, 0.0, 0.0, 0.0, 0.0, 0.0, 1.6186671303908792E9, 2021-04-17 16:45:30.390
137.0, 25.674413681030273, 28.688772201538086, -46.40467834472656, -11.182300567626953, 0.0, 0.0, 0.0, 0.0, 0.0, 0.0, 0.0, 0.0, 1.6186671304044588E9, 2021-04-17 16:45:30.404
137.0, 17.891681671142578, 36.84549331665039, -32.675506591796875, 10.049111366271973, 0.0, 0.0, 0.0, 0.0, 0.0, 0.0, 0.0, 0.0, 1.6186671304044588E9, 2021-04-17 16:45:30.404
138.0, 30.038875579833984, 32.623146057128906, -23.81942367553711, -5.041385173797607, 0.0, 0.0, 0.0, 0.0, 0.0, 0.0, 0.0, 0.0, 1.6186671304202085E9, 2021-04-17 16:45:30.420
138.0, 23.684785842895508, 26.867441177368164, -21.960693359375, -10.01545238494873, 0.0, 0.0, 0.0, 0.0, 0.0, 0.0, 0.0, 0.0, 1.6186671304202085E9, 2021-04-17 16:45:30.420
139.0, 14.387394905090332, 33.7563362121582, -22.443140029907227, -0.639522910118103, 0.0, 0.0, 0.0, 0.0, 0.0, 0.0, 0.0, 0.0, 1.6186671304208407E9, 2021-04-17 16:45:30.420
139.0, 23.957799911499023, 11.402955055236816, -45.705318450927734, 12.599722862243652, 0.0, 0.0, 0.0, 0.0, 0.0, 0.0, 0.0, 0.0, 1.6186671304208407E9, 2021-04-17 16:45:30.420
140.0, 35.611328125, 46.842247009277344, -5.905302047729492, -8.055744171142578, 0.0, 0.0, 0.0, 0.0, 0.0, 0.0, 0.0, 0.0, 1.6186671304346075E9, 2021-04-17 16:45:30.434
140.0, 26.669225692749023, 42.537620544433594, -17.255897521972656, -26.485971450805664, 0.0, 0.0, 0.0, 0.0, 0.0, 0.0, 0.0, 0.0, 1.6186671304346075E9, 2021-04-17 16:45:30.434
141.0, 8.29135799407959, 23.7034854888916, -11.144902229309082, -2.715167284011841, 0.0, 0.0, 0.0, 0.0, 0.0, 0.0, 0.0, 0.0, 1.6186671304501321E9, 2021-04-17 16:45:30.450
141.0, 17.603708267211914, 28.726171493530273, -13.276644706726074, 10.434320449829102, 0.0, 0.0, 0.0, 0.0, 0.0, 0.0, 0.0, 0.0, 1.6186671304501321E9, 2021-04-17 16:45:30.450
142.0, 47.59022521972656, -7.947287559509277, -83.53814697265625, 32.567047119140625, 0.0, 0.0, 0.0, 0.0, 0.0, 0.0, 0.0, 0.0, 1.6186671304508398E9, 2021-04-17 16:45:30.450
142.0, 28.337221145629883, 56.910057067871094, -39.833675384521484, -108.51693725585938, 0.0, 0.0, 0.0, 0.0, 0.0, 0.0, 0.0, 0.0, 1.6186671304508398E9, 2021-04-17 16:45:30.450
143.0, 16.810850143432617, 9.738699913024902, -44.71050262451172, 28.225025177001953, 0.0, 0.0, 0.0, 0.0, 0.0, 0.0, 0.0, 0.0, 1.618667130464438E9, 2021-04-17 16:45:30.464
143.0, -6.440107822418213, 51.06459426879883, 1.522139310836792, 48.77951431274414, 0.0, 0.0, 0.0, 0.0, 0.0, 0.0, 0.0, 0.0, 1.618667130464438E9, 2021-04-17 16:45:30.464
144.0, 12.001338958740234, 61.360538482666016, -0.2767525911331177, 47.470550537109375, 0.0, 0.0, 0.0, 0.0, 0.0, 0.0, 0.0, 0.0, 1.6186671304801629E9, 2021-04-17 16:45:30.480
144.0, 5.03764533996582, 47.81462097167969, -19.320323944091797, 15.389688491821289, 0.0, 0.0, 0.0, 0.0, 0.0, 0.0, 0.0, 0.0, 1.6186671304801629E9, 2021-04-17 16:45:30.480
145.0, -4.686094760894775, 46.034427642822266, -25.708072662353516, 9.705039978027344, 0.0, 0.0, 0.0, 0.0, 0.0, 0.0, 0.0, 0.0, 1.61866713048085E9, 2021-04-17 16:45:30.480
145.0, -11.432873725891113, 50.63076400756836, -26.504671096801758, 21.40718650817871, 0.0, 0.0, 0.0, 0.0, 0.0, 0.0, 0.0, 0.0, 1.61866713048085E9, 2021-04-17 16:45:30.480
146.0, 7.808911323547363, 45.28644943237305, -26.067102432250977, 11.68344783782959, 0.0, 0.0, 0.0, 0.0, 0.0, 0.0, 0.0, 0.0, 1.6186671304948375E9, 2021-04-17 16:45:30.494
146.0, 2.2925586700439453, 37.634613037109375, -34.04804992675781, -4.873089790344238, 0.0, 0.0, 0.0, 0.0, 0.0, 0.0, 0.0, 0.0, 1.6186671304948375E9, 2021-04-17 16:45:30.494
147.0, -6.660761833190918, 29.919198989868164, -27.136714935302734, 14.148041725158691, 0.0, 0.0, 0.0, 0.0, 0.0, 0.0, 0.0, 0.0, 1.6186671305102708E9, 2021-04-17 16:45:30.510
147.0, 24.69455909729004, 43.117305755615234, -28.748611450195312, 24.238290786743164, 0.0, 0.0, 0.0, 0.0, 0.0, 0.0, 0.0, 0.0, 1.6186671305102708E9, 2021-04-17 16:45:30.510
148.0, 16.1040096282959, 35.92173767089844, -41.6437873840332, 10.052850723266602, 0.0, 0.0, 0.0, 0.0, 0.0, 0.0, 0.0, 0.0, 1.6186671305108907E9, 2021-04-17 16:45:30.510
148.0, -31.987363815307617, 24.851634979248047, -40.30116271972656, -7.446140766143799, 0.0, 0.0, 0.0, 0.0, 0.0, 0.0, 0.0, 0.0, 1.6186671305108907E9, 2021-04-17 16:45:30.510
149.0, 9.7686185836792, 37.86274719238281, -9.69756031036377, 11.668487548828125, 0.0, 0.0, 0.0, 0.0, 0.0, 0.0, 0.0, 0.0, 1.6186671305245051E9, 2021-04-17 16:45:30.524
149.0, 10.509119033813477, 25.95864486694336, -32.9709587097168, 24.141054153442383, 0.0, 0.0, 0.0, 0.0, 0.0, 0.0, 0.0, 0.0, 1.6186671305245051E9, 2021-04-17 16:45:30.524
150.0, 14.903501510620117, 49.65091323852539, -61.405418395996094, 14.85488224029541, 0.0, 0.0, 0.0, 0.0, 0.0, 0.0, 0.0, 0.0, 1.6186671305401304E9, 2021-04-17 16:45:30.540
150.0, 3.53794527053833, 27.80241584777832, -33.098114013671875, -5.650989055633545, 0.0, 0.0, 0.0, 0.0, 0.0, 0.0, 0.0, 0.0, 1.6186671305401304E9, 2021-04-17 16:45:30.540
151.0, -3.0854175090789795, 29.06650161743164, -55.80304718017578, 6.9449944496154785, 0.0, 0.0, 0.0, 0.0, 0.0, 0.0, 0.0, 0.0, 1.6186671305408387E9, 2021-04-17 16:45:30.540
151.0, 1.7876721620559692, 37.544857025146484, -60.82199478149414, 24.731958389282227, 0.0, 0.0, 0.0, 0.0, 0.0, 0.0, 0.0, 0.0, 1.6186671305408387E9, 2021-04-17 16:45:30.540
152.0, -2.255159616470337, 46.77866744995117, -63.884971618652344, 10.112689018249512, 0.0, 0.0, 0.0, 0.0, 0.0, 0.0, 0.0, 0.0, 1.6186671305544484E9, 2021-04-17 16:45:30.554
152.0, 4.285925388336182, 32.74656295776367, -60.95663070678711, -3.2537128925323486, 0.0, 0.0, 0.0, 0.0, 0.0, 0.0, 0.0, 0.0, 1.6186671305544484E9, 2021-04-17 16:45:30.554
153.0, -5.247079849243164, 35.248558044433594, -56.491188049316406, 11.500192642211914, 0.0, 0.0, 0.0, 0.0, 0.0, 0.0, 0.0, 0.0, 1.6186671305703316E9, 2021-04-17 16:45:30.570
153.0, 7.464840412139893, 38.771541595458984, -52.18656539916992, 18.411527633666992, 0.0, 0.0, 0.0, 0.0, 0.0, 0.0, 0.0, 0.0, 1.6186671305703316E9, 2021-04-17 16:45:30.570
154.0, 6.148395538330078, 38.99219512939453, -51.55078125, 6.817837715148926, 0.0, 0.0, 0.0, 0.0, 0.0, 0.0, 0.0, 0.0, 1.618667130570879E9, 2021-04-17 16:45:30.570
154.0, -0.856437087059021, 40.544254302978516, -60.365726470947266, -6.152135372161865, 0.0, 0.0, 0.0, 0.0, 0.0, 0.0, 0.0, 0.0, 1.618667130570879E9, 2021-04-17 16:45:30.570
155.0, -5.060084819793701, 37.47005844116211, -56.61086654663086, 8.796244621276855, 0.0, 0.0, 0.0, 0.0, 0.0, 0.0, 0.0, 0.0, 1.6186671305844448E9, 2021-04-17 16:45:30.584
155.0, -2.5431320667266846, 43.831626892089844, -46.43085861206055, 19.85512924194336, 0.0, 0.0, 0.0, 0.0, 0.0, 0.0, 0.0, 0.0, 1.6186671305844448E9, 2021-04-17 16:45:30.584
156.0, 13.171927452087402, 36.47150421142578, -43.24072265625, 2.3262178897857666, 0.0, 0.0, 0.0, 0.0, 0.0, 0.0, 0.0, 0.0, 1.6186671306001108E9, 2021-04-17 16:45:30.600
156.0, 13.97226619720459, 29.500329971313477, -48.68601608276367, -6.690680980682373, 0.0, 0.0, 0.0, 0.0, 0.0, 0.0, 0.0, 0.0, 1.6186671306001108E9, 2021-04-17 16:45:30.600
157.0, 3.747379779815674, 32.196800231933594, -41.15760040283203, 7.618175983428955, 0.0, 0.0, 0.0, 0.0, 0.0, 0.0, 0.0, 0.0, 1.6186671306008244E9, 2021-04-17 16:45:30.600
157.0, 11.354336738586426, 31.239383697509766, -41.80834197998047, 9.738699913024902, 0.0, 0.0, 0.0, 0.0, 0.0, 0.0, 0.0, 0.0, 1.6186671306008244E9, 2021-04-17 16:45:30.600
158.0, 17.801923751831055, 43.5399169921875, -42.32444763183594, 12.416467666625977, 0.0, 0.0, 0.0, 0.0, 0.0, 0.0, 0.0, 0.0, 1.6186671306144545E9, 2021-04-17 16:45:30.614
158.0, 5.194721221923828, 41.258575439453125, -40.48441696166992, -6.941254138946533, 0.0, 0.0, 0.0, 0.0, 0.0, 0.0, 0.0, 0.0, 1.6186671306144545E9, 2021-04-17 16:45:30.614
159.0, -2.8348441123962402, 38.67056655883789, -40.357261657714844, 7.835090637207031, 0.0, 0.0, 0.0, 0.0, 0.0, 0.0, 0.0, 0.0, 1.618667130629899E9, 2021-04-17 16:45:30.629
159.0, 8.250219345092773, 41.060359954833984, -33.056976318359375, 14.536991119384766, 0.0, 0.0, 0.0, 0.0, 0.0, 0.0, 0.0, 0.0, 1.618667130629899E9, 2021-04-17 16:45:30.629
160.0, 7.008572578430176, 39.209110260009766, -32.41745376586914, -0.3814697861671448, 0.0, 0.0, 0.0, 0.0, 0.0, 0.0, 0.0, 0.0, 1.6186671306453712E9, 2021-04-17 16:45:30.645
160.0, 18.587303161621094, 43.71569061279297, -31.516136169433594, -15.658961296081543, 0.0, 0.0, 0.0, 0.0, 0.0, 0.0, 0.0, 0.0, 1.6186671306453712E9, 2021-04-17 16:45:30.645
161.0, 35.6001091003418, 41.99907684326172, -35.3121337890625, -5.13488245010376, 0.0, 0.0, 0.0, 0.0, 0.0, 0.0, 0.0, 0.0, 1.6186671306460044E9, 2021-04-17 16:45:30.646
161.0, -36.89037322998047, 38.98845672607422, -30.88409423828125, 1.196768045425415, 0.0, 0.0, 0.0, 0.0, 0.0, 0.0, 0.0, 0.0, 1.6186671306460044E9, 2021-04-17 16:45:30.646
162.0, -11.032705307006836, 44.63570785522461, -22.315982818603516, -0.721800684928894, 0.0, 0.0, 0.0, 0.0, 0.0, 0.0, 0.0, 0.0, 1.6186671306601064E9, 2021-04-17 16:45:30.660
162.0, -10.565217018127441, 41.987857818603516, -20.07952308654785, -11.444093704223633, 0.0, 0.0, 0.0, 0.0, 0.0, 0.0, 0.0, 0.0, 1.6186671306601064E9, 2021-04-17 16:45:30.660
163.0, -8.452174186706543, 44.10464096069336, -21.504425048828125, 0.15333589911460876, 0.0, 0.0, 0.0, 0.0, 0.0, 0.0, 0.0, 0.0, 1.618667130660921E9, 2021-04-17 16:45:30.660
163.0, 56.584686279296875, 47.949256896972656, -11.193520545959473, 3.511765956878662, 0.0, 0.0, 0.0, 0.0, 0.0, 0.0, 0.0, 0.0, 1.618667130660921E9, 2021-04-17 16:45:30.660
164.0, 10.520339012145996, 31.36280059814453, -21.257591247558594, -42.24591064453125, 0.0, 0.0, 0.0, 0.0, 0.0, 0.0, 0.0, 0.0, 1.618667130674513E9, 2021-04-17 16:45:30.674
164.0, -89.29759216308594, 18.44892692565918, -31.748010635375977, -52.48949432373047, 0.0, 0.0, 0.0, 0.0, 0.0, 0.0, 0.0, 0.0, 1.618667130674513E9, 2021-04-17 16:45:30.674
165.0, 25.543516159057617, 59.4905891418457, -9.001938819885254, 14.67162799835205, 0.0, 0.0, 0.0, 0.0, 0.0, 0.0, 0.0, 0.0, 1.6186671306904323E9, 2021-04-17 16:45:30.690
165.0, -21.781177520751953, 55.88158416748047, -10.71855354309082, 5.9688801765441895, 0.0, 0.0, 0.0, 0.0, 0.0, 0.0, 0.0, 0.0, 1.6186671306904323E9, 2021-04-17 16:45:30.690
166.0, -4.9628472328186035, 51.128173828125, -13.564617156982422, -9.099176406860352, 0.0, 0.0, 0.0, 0.0, 0.0, 0.0, 0.0, 0.0, 1.6186671306908576E9, 2021-04-17 16:45:30.690
166.0, -19.417560577392578, 50.49987030029297, -12.726879119873047, -19.795289993286133, 0.0, 0.0, 0.0, 0.0, 0.0, 0.0, 0.0, 0.0, 1.6186671306908576E9, 2021-04-17 16:45:30.690
167.0, -24.245771408081055, 49.92018508911133, -12.734359741210938, -4.353243350982666, 0.0, 0.0, 0.0, 0.0, 0.0, 0.0, 0.0, 0.0, 1.6186671307044349E9, 2021-04-17 16:45:30.704
167.0, -16.354581832885742, 48.38682556152344, -2.913382053375244, -4.05031156539917, 0.0, 0.0, 0.0, 0.0, 0.0, 0.0, 0.0, 0.0, 1.6186671307044349E9, 2021-04-17 16:45:30.704
168.0, 48.97399139404297, 50.006202697753906, 2.449634552001953, -25.45749855041504, 0.0, 0.0, 0.0, 0.0, 0.0, 0.0, 0.0, 0.0, 1.6186671307364948E9, 2021-04-17 16:45:30.736
168.0, -23.576330184936523, 28.718690872192383, -7.603216648101807, -56.58094787597656, 0.0, 0.0, 0.0, 0.0, 0.0, 0.0, 0.0, 0.0, 1.6186671307364948E9, 2021-04-17 16:45:30.736
169.0, -34.98676300048828, 44.78904342651367, -12.132235527038574, -13.762831687927246, 0.0, 0.0, 0.0, 0.0, 0.0, 0.0, 0.0, 0.0, 1.6186671307372267E9, 2021-04-17 16:45:30.737
169.0, -13.2691650390625, 60.10767364501953, 10.172528266906738, 9.701300621032715, 0.0, 0.0, 0.0, 0.0, 0.0, 0.0, 0.0, 0.0, 1.6186671307372267E9, 2021-04-17 16:45:30.737
170.0, -2.012066125869751, 47.653804779052734, 7.8724894523620605, -21.7961368560791, 0.0, 0.0, 0.0, 0.0, 0.0, 0.0, 0.0, 0.0, 1.6186671307379465E9, 2021-04-17 16:45:30.737
170.0, 34.73619079589844, 42.8891716003418, 10.845709800720215, -36.770694732666016, 0.0, 0.0, 0.0, 0.0, 0.0, 0.0, 0.0, 0.0, 1.6186671307379465E9, 2021-04-17 16:45:30.737
171.0, 22.59647560119629, 39.52700424194336, 3.1415159702301025, -20.558229446411133, 0.0, 0.0, 0.0, 0.0, 0.0, 0.0, 0.0, 0.0, 1.618667130738707E9, 2021-04-17 16:45:30.738
171.0, 46.19524383544922, 49.49009704589844, 11.369296073913574, -8.811203956604004, 0.0, 0.0, 0.0, 0.0, 0.0, 0.0, 0.0, 0.0, 1.618667130738707E9, 2021-04-17 16:45:30.738
172.0, -15.718799591064453, 58.96326446533203, 11.369296073913574, -8.175421714782715, 0.0, 0.0, 0.0, 0.0, 0.0, 0.0, 0.0, 0.0, 1.6186671307497241E9, 2021-04-17 16:45:30.749
172.0, -5.363016605377197, 50.20815658569336, 10.217406272888184, -13.242985725402832, 0.0, 0.0, 0.0, 0.0, 0.0, 0.0, 0.0, 0.0, 1.6186671307497241E9, 2021-04-17 16:45:30.749
173.0, -0.1047171950340271, 52.32868194580078, 18.792997360229492, 3.582824230194092, 0.0, 0.0, 0.0, 0.0, 0.0, 0.0, 0.0, 0.0, 1.6186671307644367E9, 2021-04-17 16:45:30.764
173.0, 3.6576220989227295, 51.715335845947266, 23.92414093017578, 7.031012058258057, 0.0, 0.0, 0.0, 0.0, 0.0, 0.0, 0.0, 0.0, 1.6186671307644367E9, 2021-04-17 16:45:30.764
174.0, 0.7891188859939575, 47.7772216796875, 16.997844696044922, -29.380653381347656, 0.0, 0.0, 0.0, 0.0, 0.0, 0.0, 0.0, 0.0, 1.6186671307801847E9, 2021-04-17 16:45:30.780
174.0, 8.366156578063965, 32.97843933105469, 11.474013328552246, -34.34724044799805, 0.0, 0.0, 0.0, 0.0, 0.0, 0.0, 0.0, 0.0, 1.6186671307801847E9, 2021-04-17 16:45:30.780
175.0, 42.04769515991211, 65.71004486083984, 30.09123420715332, 17.49525260925293, 0.0, 0.0, 0.0, 0.0, 0.0, 0.0, 0.0, 0.0, 1.6186671307808487E9, 2021-04-17 16:45:30.780
175.0, 15.281230926513672, 54.337005615234375, 27.05443572998047, 10.01545238494873, 0.0, 0.0, 0.0, 0.0, 0.0, 0.0, 0.0, 0.0, 1.6186671307808487E9, 2021-04-17 16:45:30.780
176.0, 23.00412368774414, 48.1998291015625, 27.649080276489258, -7.846310138702393, 0.0, 0.0, 0.0, 0.0, 0.0, 0.0, 0.0, 0.0, 1.618667130794472E9, 2021-04-17 16:45:30.794
176.0, 19.054790496826172, 47.58648681640625, 28.535436630249023, -17.715906143188477, 0.0, 0.0, 0.0, 0.0, 0.0, 0.0, 0.0, 0.0, 1.618667130794472E9, 2021-04-17 16:45:30.794
177.0, 7.232966423034668, 51.56574249267578, 35.77214431762695, 8.022085189819336, 0.0, 0.0, 0.0, 0.0, 0.0, 0.0, 0.0, 0.0, 1.6186671308104367E9, 2021-04-17 16:45:30.810
177.0, 28.632673263549805, 50.49987030029297, 45.64173889160156, 11.331896781921387, 0.0, 0.0, 0.0, 0.0, 0.0, 0.0, 0.0, 0.0, 1.6186671308104367E9, 2021-04-17 16:45:30.810
178.0, 37.52241516113281, 56.91379928588867, 31.83028793334961, 6.933774471282959, 0.0, 0.0, 0.0, 0.0, 0.0, 0.0, 0.0, 0.0, 1.6186671308108933E9, 2021-04-17 16:45:30.810
178.0, 20.386194229125977, 51.72655487060547, 32.963478088378906, -15.210172653198242, 0.0, 0.0, 0.0, 0.0, 0.0, 0.0, 0.0, 0.0, 1.6186671308108933E9, 2021-04-17 16:45:30.810
179.0, 16.64629554748535, 50.084739685058594, 40.81352996826172, 11.769465446472168, 0.0, 0.0, 0.0, 0.0, 0.0, 0.0, 0.0, 0.0, 1.6186671308247156E9, 2021-04-17 16:45:30.824
179.0, 46.58793258666992, 61.4577751159668, 50.54848861694336, 20.48343276977539, 0.0, 0.0, 0.0, 0.0, 0.0, 0.0, 0.0, 0.0, 1.6186671308247156E9, 2021-04-17 16:45:30.824
180.0, 57.45608139038086, 46.849727630615234, 48.83187484741211, -10.879368782043457, 0.0, 0.0, 0.0, 0.0, 0.0, 0.0, 0.0, 0.0, 1.618667130840312E9, 2021-04-17 16:45:30.840
180.0, 42.82559585571289, 57.28030776977539, 47.63884735107422, -13.104609489440918, 0.0, 0.0, 0.0, 0.0, 0.0, 0.0, 0.0, 0.0, 1.618667130840312E9, 2021-04-17 16:45:30.840
181.0, 22.353382110595703, 55.49263381958008, 51.954689025878906, 4.603816986083984, 0.0, 0.0, 0.0, 0.0, 0.0, 0.0, 0.0, 0.0, 1.618667130840835E9, 2021-04-17 16:45:30.840
181.0, 14.394874572753906, 63.14821243286133, 49.751888275146484, 17.05768394470215, 0.0, 0.0, 0.0, 0.0, 0.0, 0.0, 0.0, 0.0, 1.618667130840835E9, 2021-04-17 16:45:30.840
182.0, 17.611188888549805, 26.901100158691406, 43.599754333496094, -15.62904167175293, 0.0, 0.0, 0.0, 0.0, 0.0, 0.0, 0.0, 0.0, 1.618667130854843E9, 2021-04-17 16:45:30.854
182.0, 39.95709228515625, 64.99198150634766, 57.198028564453125, -19.264225006103516, 0.0, 0.0, 0.0, 0.0, 0.0, 0.0, 0.0, 0.0, 1.618667130854843E9, 2021-04-17 16:45:30.854
183.0, 11.118722915649414, 68.79920196533203, 67.5912094116211, 33.79747772216797, 0.0, 0.0, 0.0, 0.0, 0.0, 0.0, 0.0, 0.0, 1.6186671308702123E9, 2021-04-17 16:45:30.870
183.0, 55.69832992553711, 61.700870513916016, 67.96520233154297, 17.90290069580078, 0.0, 0.0, 0.0, 0.0, 0.0, 0.0, 0.0, 0.0, 1.6186671308702123E9, 2021-04-17 16:45:30.870
184.0, -2.258899688720703, 45.63051986694336, 61.38671875, -14.297637939453125, 0.0, 0.0, 0.0, 0.0, 0.0, 0.0, 0.0, 0.0, 1.6186671308708172E9, 2021-04-17 16:45:30.870
184.0, 52.16412353515625, 66.11395263671875, 70.93842315673828, 0.6657021641731262, 0.0, 0.0, 0.0, 0.0, 0.0, 0.0, 0.0, 0.0, 1.6186671308708172E9, 2021-04-17 16:45:30.870
185.0, 30.906532287597656, 69.4798583984375, 73.46659851074219, 23.5277099609375, 0.0, 0.0, 0.0, 0.0, 0.0, 0.0, 0.0, 0.0, 1.6186671308845363E9, 2021-04-17 16:45:30.884
185.0, 31.351581573486328, 60.496620178222656, 75.45622253417969, 23.96527862548828, 0.0, 0.0, 0.0, 0.0, 0.0, 0.0, 0.0, 0.0, 1.6186671308845363E9, 2021-04-17 16:45:30.884
186.0, 36.25458908081055, 60.391902923583984, 76.78388977050781, -7.674274921417236, 0.0, 0.0, 0.0, 0.0, 0.0, 0.0, 0.0, 0.0, 1.618667130900237E9, 2021-04-17 16:45:30.900
186.0, 26.527111053466797, 60.34702682495117, 82.83130645751953, -19.65691375732422, 0.0, 0.0, 0.0, 0.0, 0.0, 0.0, 0.0, 0.0, 1.618667130900237E9, 2021-04-17 16:45:30.900
187.0, -8.070704460144043, 40.94816589355469, 73.9939193725586, 2.804924964904785, 0.0, 0.0, 0.0, 0.0, 0.0, 0.0, 0.0, 0.0, 1.6186671309008043E9, 2021-04-17 16:45:30.900
187.0, 241.69851684570312, 66.49542236328125, 89.96703338623047, 9.75365924835205, 0.0, 0.0, 0.0, 0.0, 0.0, 0.0, 0.0, 0.0, 1.6186671309008043E9, 2021-04-17 16:45:30.900
188.0, 31.654512405395508, 46.86842727661133, 77.37478637695312, -9.551704406738281, 0.0, 0.0, 0.0, 0.0, 0.0, 0.0, 0.0, 0.0, 1.6186671309144711E9, 2021-04-17 16:45:30.914
188.0, 80.14979553222656, 65.77735900878906, 89.94085693359375, 21.69890022277832, 0.0, 0.0, 0.0, 0.0, 0.0, 0.0, 0.0, 0.0, 1.6186671309144711E9, 2021-04-17 16:45:30.914
189.0, 15.591643333435059, 65.61654663085938, 90.52053833007812, 35.9815788269043, 0.0, 0.0, 0.0, 0.0, 0.0, 0.0, 0.0, 0.0, 1.6186671309301507E9, 2021-04-17 16:45:30.930
189.0, 72.47552490234375, 69.99596405029297, 98.93531036376953, 17.82810401916504, 0.0, 0.0, 0.0, 0.0, 0.0, 0.0, 0.0, 0.0, 1.6186671309301507E9, 2021-04-17 16:45:30.930
190.0, 156.61578369140625, 61.43159484863281, 103.36335754394531, -48.40178680419922, 0.0, 0.0, 0.0, 0.0, 0.0, 0.0, 0.0, 0.0, 1.6186671309308405E9, 2021-04-17 16:45:30.930
190.0, -14.667887687683105, 21.04815673828125, 63.783992767333984, -57.74779510498047, 0.0, 0.0, 0.0, 0.0, 0.0, 0.0, 0.0, 0.0, 1.6186671309308405E9, 2021-04-17 16:45:30.930
191.0, 43.23698425292969, 91.95291900634766, 112.20447540283203, 84.48808288574219, 0.0, 0.0, 0.0, 0.0, 0.0, 0.0, 0.0, 0.0, 1.6186671309445028E9, 2021-04-17 16:45:30.944
191.0, 16.34336280822754, 73.66854858398438, 106.51982879638672, 50.4362907409668, 0.0, 0.0, 0.0, 0.0, 0.0, 0.0, 0.0, 0.0, 1.6186671309445028E9, 2021-04-17 16:45:30.944
192.0, 38.745365142822266, 59.20261764526367, 102.60041809082031, 2.9732203483581543, 0.0, 0.0, 0.0, 0.0, 0.0, 0.0, 0.0, 0.0, 1.6186671309602864E9, 2021-04-17 16:45:30.960
192.0, 26.306455612182617, 63.069671630859375, 101.14559173583984, 9.084217071533203, 0.0, 0.0, 0.0, 0.0, 0.0, 0.0, 0.0, 0.0, 1.6186671309602864E9, 2021-04-17 16:45:30.960
193.0, 38.71170425415039, 69.88751220703125, 110.19241333007812, 31.30670166015625, 0.0, 0.0, 0.0, 0.0, 0.0, 0.0, 0.0, 0.0, 1.618667130960856E9, 2021-04-17 16:45:30.960
193.0, 45.19668960571289, 64.46839904785156, 112.63456726074219, 26.86370086669922, 0.0, 0.0, 0.0, 0.0, 0.0, 0.0, 0.0, 0.0, 1.618667130960856E9, 2021-04-17 16:45:30.960
194.0, 61.92900466918945, 60.451744079589844, 117.54879760742188, -20.434812545776367, 0.0, 0.0, 0.0, 0.0, 0.0, 0.0, 0.0, 0.0, 1.6186671309744396E9, 2021-04-17 16:45:30.974
194.0, 57.059654235839844, 63.395042419433594, 119.6992416381836, 1.9522278308868408, 0.0, 0.0, 0.0, 0.0, 0.0, 0.0, 0.0, 0.0, 1.6186671309744396E9, 2021-04-17 16:45:30.974
195.0, -21.489465713500977, 56.925018310546875, 115.12159729003906, 18.643402099609375, 0.0, 0.0, 0.0, 0.0, 0.0, 0.0, 0.0, 0.0, 1.6186671309902327E9, 2021-04-17 16:45:30.990
195.0, 40.76865005493164, 63.163169860839844, 123.1773452758789, 5.220900535583496, 0.0, 0.0, 0.0, 0.0, 0.0, 0.0, 0.0, 0.0, 1.6186671309902327E9, 2021-04-17 16:45:30.990
196.0, 54.105133056640625, 62.306732177734375, 127.03691864013672, 4.43178129196167, 0.0, 0.0, 0.0, 0.0, 0.0, 0.0, 0.0, 0.0, 1.618667130990924E9, 2021-04-17 16:45:30.990
196.0, 87.82781219482422, 68.48878479003906, 125.14826965332031, 1.5894575119018555, 0.0, 0.0, 0.0, 0.0, 0.0, 0.0, 0.0, 0.0, 1.618667130990924E9, 2021-04-17 16:45:30.990
197.0, 119.0185775756836, 77.54308319091797, 129.7259063720703, 21.88963508605957, 0.0, 0.0, 0.0, 0.0, 0.0, 0.0, 0.0, 0.0, 1.618667131020904E9, 2021-04-17 16:45:31.020
197.0, -12.117276191711426, 53.192596435546875, 120.49583435058594, 0.5983840227127075, 0.0, 0.0, 0.0, 0.0, 0.0, 0.0, 0.0, 0.0, 1.618667131020904E9, 2021-04-17 16:45:31.020
198.0, 60.03661346435547, 75.23182678222656, 130.05128479003906, 22.0018310546875, 0.0, 0.0, 0.0, 0.0, 0.0, 0.0, 0.0, 0.0, 1.6186671310220273E9, 2021-04-17 16:45:31.022
198.0, 54.337005615234375, 63.53715896606445, 130.9937286376953, -55.55995559692383, 0.0, 0.0, 0.0, 0.0, 0.0, 0.0, 0.0, 0.0, 1.6186671310220273E9, 2021-04-17 16:45:31.022
199.0, 24.975051879882812, 67.75576782226562, 126.65544891357422, 48.753334045410156, 0.0, 0.0, 0.0, 0.0, 0.0, 0.0, 0.0, 0.0, 1.6186671310223038E9, 2021-04-17 16:45:31.022
199.0, 48.629920959472656, 90.74867248535156, 153.31346130371094, 38.86130142211914, 0.0, 0.0, 0.0, 0.0, 0.0, 0.0, 0.0, 0.0, 1.6186671310223038E9, 2021-04-17 16:45:31.022
200.0, 57.80763244628906, 71.53306579589844, 143.44012451171875, 15.87961483001709, 0.0, 0.0, 0.0, 0.0, 0.0, 0.0, 0.0, 0.0, 1.6186671310352032E9, 2021-04-17 16:45:31.035
200.0, 41.83452224731445, 48.02405548095703, 134.95802307128906, -0.11593689769506454, 0.0, 0.0, 0.0, 0.0, 0.0, 0.0, 0.0, 0.0, 1.6186671310352032E9, 2021-04-17 16:45:31.035
0.0, -314.4881896972656, -105.36420440673828, -69.41815185546875, -156.2212371826172, 0.0, 0.0, 0.0, 0.0, 0.0, 0.0, 0.0, 0.0, 1.6186671310358288E9, 2021-04-17 16:45:31.035
101.0, -320.2102355957031, -90.1502914428711, -31.83589744567871, -112.98424530029297, 0.0, 0.0, 0.0, 0.0, 0.0, 0.0, 0.0, 0.0, 1.6186671310495288E9, 2021-04-17 16:45:31.049
101.0, -318.4524841308594, -104.84061431884766, -47.012413024902344, -142.01708984375, 0.0, 0.0, 0.0, 0.0, 0.0, 0.0, 0.0, 0.0, 1.6186671310495288E9, 2021-04-17 16:45:31.049
102.0, -324.2007141113281, -78.73237609863281, -66.93112182617188, -72.8588638305664, 0.0, 0.0, 0.0, 0.0, 0.0, 0.0, 0.0, 0.0, 1.618667131065179E9, 2021-04-17 16:45:31.065
102.0, -337.862548828125, -76.03590393066406, -51.4217529296875, -65.4127197265625, 0.0, 0.0, 0.0, 0.0, 0.0, 0.0, 0.0, 0.0, 1.618667131065179E9, 2021-04-17 16:45:31.065
103.0, -332.85858154296875, -84.87702941894531, -47.89502716064453, -82.10015106201172, 0.0, 0.0, 0.0, 0.0, 0.0, 0.0, 0.0, 0.0, 1.6186671310658984E9, 2021-04-17 16:45:31.065
103.0, -323.5873718261719, -89.39856719970703, -40.475067138671875, -114.78688049316406, 0.0, 0.0, 0.0, 0.0, 0.0, 0.0, 0.0, 0.0, 1.6186671310658984E9, 2021-04-17 16:45:31.065
104.0, -330.17706298828125, -96.28746795654297, -40.90141677856445, -88.31586456298828, 0.0, 0.0, 0.0, 0.0, 0.0, 0.0, 0.0, 0.0, 1.6186671310796845E9, 2021-04-17 16:45:31.079
104.0, -321.7660217285156, -122.17879486083984, -61.01085662841797, -132.3606719970703, 0.0, 0.0, 0.0, 0.0, 0.0, 0.0, 0.0, 0.0, 1.6186671310796845E9, 2021-04-17 16:45:31.079
105.0, -323.38916015625, -95.42354583740234, -23.49966049194336, -26.278406143188477, 0.0, 0.0, 0.0, 0.0, 0.0, 0.0, 0.0, 0.0, 1.6186671310952108E9, 2021-04-17 16:45:31.095
105.0, -323.83795166015625, -91.63128662109375, -19.711143493652344, -85.66053771972656, 0.0, 0.0, 0.0, 0.0, 0.0, 0.0, 0.0, 0.0, 1.6186671310952108E9, 2021-04-17 16:45:31.095
106.0, -317.5399475097656, -96.88584899902344, 4.014782428741455, -79.00725555419922, 0.0, 0.0, 0.0, 0.0, 0.0, 0.0, 0.0, 0.0, 1.6186671310958693E9, 2021-04-17 16:45:31.095
106.0, -335.38299560546875, -123.8954086303711, 25.964256286621094, -133.2021484375, 0.0, 0.0, 0.0, 0.0, 0.0, 0.0, 0.0, 0.0, 1.6186671310958693E9, 2021-04-17 16:45:31.095
107.0, -327.97052001953125, -55.7880859375, -8.293228149414062, -75.6937026977539, 0.0, 0.0, 0.0, 0.0, 0.0, 0.0, 0.0, 0.0, 1.6186671311094031E9, 2021-04-17 16:45:31.109
107.0, -321.945556640625, -74.15099334716797, 2.3168680667877197, -100.12647247314453, 0.0, 0.0, 0.0, 0.0, 0.0, 0.0, 0.0, 0.0, 1.6186671311094031E9, 2021-04-17 16:45:31.109
108.0, -337.5970153808594, -132.45230102539062, -63.51285171508789, -99.65898132324219, 0.0, 0.0, 0.0, 0.0, 0.0, 0.0, 0.0, 0.0, 1.6186671311252868E9, 2021-04-17 16:45:31.125
108.0, -311.1521911621094, -94.72044372558594, -20.720914840698242, -231.55029296875, 0.0, 0.0, 0.0, 0.0, 0.0, 0.0, 0.0, 0.0, 1.6186671311252868E9, 2021-04-17 16:45:31.125
109.0, -354.13861083984375, -35.03538131713867, 23.447301864624023, 40.93507385253906, 0.0, 0.0, 0.0, 0.0, 0.0, 0.0, 0.0, 0.0, 1.6186671311258657E9, 2021-04-17 16:45:31.125
109.0, -335.080078125, -73.05520629882812, 28.223154067993164, -79.03343200683594, 0.0, 0.0, 0.0, 0.0, 0.0, 0.0, 0.0, 0.0, 1.6186671311258657E9, 2021-04-17 16:45:31.125
110.0, -343.55096435546875, -75.44873809814453, 10.540907859802246, -79.90483093261719, 0.0, 0.0, 0.0, 0.0, 0.0, 0.0, 0.0, 0.0, 1.61866713115579E9, 2021-04-17 16:45:31.155
110.0, -347.5675964355469, -78.89692687988281, 21.682069778442383, -61.30257034301758, 0.0, 0.0, 0.0, 0.0, 0.0, 0.0, 0.0, 0.0, 1.61866713115579E9, 2021-04-17 16:45:31.155
111.0, -340.69366455078125, -83.78124237060547, 13.342093467712402, -64.47400665283203, 0.0, 0.0, 0.0, 0.0, 0.0, 0.0, 0.0, 0.0, 1.6186671311565144E9, 2021-04-17 16:45:31.156
111.0, -339.9344787597656, -87.95870971679688, 1.0004231929779053, -107.99522399902344, 0.0, 0.0, 0.0, 0.0, 0.0, 0.0, 0.0, 0.0, 1.6186671311565144E9, 2021-04-17 16:45:31.156
112.0, -353.3494873046875, -74.46888732910156, 13.413150787353516, -72.35023498535156, 0.0, 0.0, 0.0, 0.0, 0.0, 0.0, 0.0, 0.0, 1.6186671311572611E9, 2021-04-17 16:45:31.157
112.0, -354.164794921875, -79.88426208496094, 17.358745574951172, -59.87018966674805, 0.0, 0.0, 0.0, 0.0, 0.0, 0.0, 0.0, 0.0, 1.6186671311572611E9, 2021-04-17 16:45:31.157
113.0, -343.0535583496094, -71.83599853515625, 5.0021162033081055, -74.99808502197266, 0.0, 0.0, 0.0, 0.0, 0.0, 0.0, 0.0, 0.0, 1.618667131169623E9, 2021-04-17 16:45:31.169
113.0, -320.677734375, -75.22061157226562, 3.35282039642334, -114.66720581054688, 0.0, 0.0, 0.0, 0.0, 0.0, 0.0, 0.0, 0.0, 1.618667131169623E9, 2021-04-17 16:45:31.169
114.0, -227.97682189941406, -63.043495178222656, 4.643085956573486, -128.35897827148438, 0.0, 0.0, 0.0, 0.0, 0.0, 0.0, 0.0, 0.0, 1.6186671312015166E9, 2021-04-17 16:45:31.201
114.0, -491.4452819824219, -110.36071014404297, -28.088518142700195, -120.80437469482422, 0.0, 0.0, 0.0, 0.0, 0.0, 0.0, 0.0, 0.0, 1.6186671312015166E9, 2021-04-17 16:45:31.201
115.0, -303.54522705078125, -66.37200164794922, -3.2855021953582764, -68.42707824707031, 0.0, 0.0, 0.0, 0.0, 0.0, 0.0, 0.0, 0.0, 1.6186671312022634E9, 2021-04-17 16:45:31.202
115.0, -355.8739318847656, -69.59954071044922, 7.006702423095703, -103.44002532958984, 0.0, 0.0, 0.0, 0.0, 0.0, 0.0, 0.0, 0.0, 1.6186671312022634E9, 2021-04-17 16:45:31.202
116.0, -329.0364074707031, -79.2522201538086, 4.987156391143799, -103.02863311767578, 0.0, 0.0, 0.0, 0.0, 0.0, 0.0, 0.0, 0.0, 1.6186671312029958E9, 2021-04-17 16:45:31.202
116.0, -347.7845153808594, -85.47541046142578, 2.1784918308258057, -79.4672622680664, 0.0, 0.0, 0.0, 0.0, 0.0, 0.0, 0.0, 0.0, 1.6186671312029958E9, 2021-04-17 16:45:31.202
117.0, -380.18701171875, -86.91527557373047, -3.5846941471099854, -99.69264221191406, 0.0, 0.0, 0.0, 0.0, 0.0, 0.0, 0.0, 0.0, 1.6186671312038248E9, 2021-04-17 16:45:31.203
117.0, -305.3366394042969, -90.70379638671875, 0.1365063488483429, -123.13807678222656, 0.0, 0.0, 0.0, 0.0, 0.0, 0.0, 0.0, 0.0, 1.6186671312038248E9, 2021-04-17 16:45:31.203
118.0, -351.5057067871094, -98.9652328491211, -4.052181720733643, -119.42061614990234, 0.0, 0.0, 0.0, 0.0, 0.0, 0.0, 0.0, 0.0, 1.6186671312144468E9, 2021-04-17 16:45:31.214
118.0, -349.65447998046875, -86.45153045654297, 3.9699037075042725, -113.45921325683594, 0.0, 0.0, 0.0, 0.0, 0.0, 0.0, 0.0, 0.0, 1.6186671312144468E9, 2021-04-17 16:45:31.214
119.0, -338.15802001953125, -85.15752410888672, -5.540661811828613, -84.73678588867188, 0.0, 0.0, 0.0, 0.0, 0.0, 0.0, 0.0, 0.0, 1.6186671312294548E9, 2021-04-17 16:45:31.229
119.0, -315.5503234863281, -94.89996337890625, -3.8577067852020264, -104.82752227783203, 0.0, 0.0, 0.0, 0.0, 0.0, 0.0, 0.0, 0.0, 1.6186671312294548E9, 2021-04-17 16:45:31.229
120.0, -322.3494567871094, -90.18769073486328, -5.005856037139893, -78.12837982177734, 0.0, 0.0, 0.0, 0.0, 0.0, 0.0, 0.0, 0.0, 1.6186671312450998E9, 2021-04-17 16:45:31.245
120.0, -332.7164611816406, -90.55419921875, -9.96496295928955, -54.23415756225586, 0.0, 0.0, 0.0, 0.0, 0.0, 0.0, 0.0, 0.0, 1.6186671312450998E9, 2021-04-17 16:45:31.245
121.0, -329.1224060058594, -95.02711486816406, -9.134705543518066, -65.11727142333984, 0.0, 0.0, 0.0, 0.0, 0.0, 0.0, 0.0, 0.0, 1.6186671312458267E9, 2021-04-17 16:45:31.245
121.0, -314.974365234375, -93.81165313720703, -10.22675609588623, -104.18052673339844, 0.0, 0.0, 0.0, 0.0, 0.0, 0.0, 0.0, 0.0, 1.6186671312458267E9, 2021-04-17 16:45:31.245
122.0, -328.56890869140625, -95.2739486694336, -17.37370491027832, -99.5580062866211, 0.0, 0.0, 0.0, 0.0, 0.0, 0.0, 0.0, 0.0, 1.6186671312594647E9, 2021-04-17 16:45:31.259
122.0, -314.6864013671875, -90.70753479003906, -7.563947677612305, -82.44048309326172, 0.0, 0.0, 0.0, 0.0, 0.0, 0.0, 0.0, 0.0, 1.6186671312594647E9, 2021-04-17 16:45:31.259
123.0, -298.9451599121094, -90.48313903808594, -10.387572288513184, -110.36257934570312, 0.0, 0.0, 0.0, 0.0, 0.0, 0.0, 0.0, 0.0, 1.6186671312916563E9, 2021-04-17 16:45:31.291
123.0, -305.748046875, -99.01385498046875, -22.3776912689209, -136.76626586914062, 0.0, 0.0, 0.0, 0.0, 0.0, 0.0, 0.0, 0.0, 1.6186671312916563E9, 2021-04-17 16:45:31.291
124.0, -308.1528015136719, -131.4275665283203, -28.41762924194336, -158.02012634277344, 0.0, 0.0, 0.0, 0.0, 0.0, 0.0, 0.0, 0.0, 1.618667131292268E9, 2021-04-17 16:45:31.292
124.0, -317.2706604003906, -51.33012771606445, 2.1410927772521973, -72.42877197265625, 0.0, 0.0, 0.0, 0.0, 0.0, 0.0, 0.0, 0.0, 1.618667131292268E9, 2021-04-17 16:45:31.292
125.0, -301.9034118652344, -63.66057586669922, -12.459476470947266, -107.4678955078125, 0.0, 0.0, 0.0, 0.0, 0.0, 0.0, 0.0, 0.0, 1.6186671312930143E9, 2021-04-17 16:45:31.293
125.0, -303.2796936035156, -84.18888854980469, -22.84143829345703, -109.8165512084961, 0.0, 0.0, 0.0, 0.0, 0.0, 0.0, 0.0, 0.0, 1.6186671312930143E9, 2021-04-17 16:45:31.293
126.0, -303.5602111816406, -90.92818450927734, -18.480714797973633, -101.4279556274414, 0.0, 0.0, 0.0, 0.0, 0.0, 0.0, 0.0, 0.0, 1.6186671312937655E9, 2021-04-17 16:45:31.293
126.0, -316.6947326660156, -79.45791625976562, -9.448857307434082, -84.785400390625, 0.0, 0.0, 0.0, 0.0, 0.0, 0.0, 0.0, 0.0, 1.6186671312937655E9, 2021-04-17 16:45:31.293
127.0, -300.8263244628906, -81.4625015258789, -17.534521102905273, -108.92645263671875, 0.0, 0.0, 0.0, 0.0, 0.0, 0.0, 0.0, 0.0, 1.618667131304642E9, 2021-04-17 16:45:31.304
127.0, -297.24725341796875, -91.7621841430664, -22.65070343017578, -109.10971069335938, 0.0, 0.0, 0.0, 0.0, 0.0, 0.0, 0.0, 0.0, 1.618667131304642E9, 2021-04-17 16:45:31.304
128.0, -303.294677734375, -89.55938720703125, -19.69244384765625, -88.99652862548828, 0.0, 0.0, 0.0, 0.0, 0.0, 0.0, 0.0, 0.0, 1.6186671313195086E9, 2021-04-17 16:45:31.319
128.0, -306.8849792480469, -75.28418731689453, -16.494829177856445, -76.10883331298828, 0.0, 0.0, 0.0, 0.0, 0.0, 0.0, 0.0, 0.0, 1.6186671313195086E9, 2021-04-17 16:45:31.319
129.0, -287.9835205078125, -87.19202423095703, -17.19792938232422, -117.9657974243164, 0.0, 0.0, 0.0, 0.0, 0.0, 0.0, 0.0, 0.0, 1.6186671313352215E9, 2021-04-17 16:45:31.335
129.0, -287.0111389160156, -88.85628509521484, -24.973182678222656, -134.892578125, 0.0, 0.0, 0.0, 0.0, 0.0, 0.0, 0.0, 0.0, 1.6186671313352215E9, 2021-04-17 16:45:31.335
130.0, -337.61199951171875, -92.2259292602539, -29.606918334960938, -114.80931854248047, 0.0, 0.0, 0.0, 0.0, 0.0, 0.0, 0.0, 0.0, 1.6186671313357966E9, 2021-04-17 16:45:31.335
130.0, -288.5893859863281, -82.03470611572266, -20.29082679748535, -94.80085754394531, 0.0, 0.0, 0.0, 0.0, 0.0, 0.0, 0.0, 0.0, 1.6186671313357966E9, 2021-04-17 16:45:31.335
131.0, -296.1813659667969, -82.70414733886719, -25.57904624938965, -130.54681396484375, 0.0, 0.0, 0.0, 0.0, 0.0, 0.0, 0.0, 0.0, 1.6186671313494928E9, 2021-04-17 16:45:31.349
131.0, -291.70098876953125, -83.7288818359375, -29.303985595703125, -147.88873291015625, 0.0, 0.0, 0.0, 0.0, 0.0, 0.0, 0.0, 0.0, 1.6186671313494928E9, 2021-04-17 16:45:31.349
132.0, -304.9551696777344, -80.30686950683594, -32.63623809814453, -126.11503601074219, 0.0, 0.0, 0.0, 0.0, 0.0, 0.0, 0.0, 0.0, 1.6186671313652546E9, 2021-04-17 16:45:31.365
132.0, -292.35919189453125, -77.2251968383789, -32.595096588134766, -131.1302490234375, 0.0, 0.0, 0.0, 0.0, 0.0, 0.0, 0.0, 0.0, 1.6186671313652546E9, 2021-04-17 16:45:31.365
133.0, -288.0171813964844, -82.91358184814453, -34.031219482421875, -168.2599639892578, 0.0, 0.0, 0.0, 0.0, 0.0, 0.0, 0.0, 0.0, 1.6186671313659227E9, 2021-04-17 16:45:31.365
133.0, -290.47802734375, -84.03181457519531, -41.74663162231445, -186.23019409179688, 0.0, 0.0, 0.0, 0.0, 0.0, 0.0, 0.0, 0.0, 1.6186671313659227E9, 2021-04-17 16:45:31.365
134.0, -297.2023620605469, -79.4915771484375, -33.72080612182617, -215.41636657714844, 0.0, 0.0, 0.0, 0.0, 0.0, 0.0, 0.0, 0.0, 1.6186671313795366E9, 2021-04-17 16:45:31.379
134.0, -301.2339782714844, -76.51087188720703, -36.08442306518555, -187.8420867919922, 0.0, 0.0, 0.0, 0.0, 0.0, 0.0, 0.0, 0.0, 1.6186671313795366E9, 2021-04-17 16:45:31.379
135.0, -283.8247375488281, -81.71307373046875, -36.02084732055664, -166.21424865722656, 0.0, 0.0, 0.0, 0.0, 0.0, 0.0, 0.0, 0.0, 1.61866713139522E9, 2021-04-17 16:45:31.395
135.0, -290.0628967285156, -97.7796859741211, -42.44599533081055, -143.89451599121094, 0.0, 0.0, 0.0, 0.0, 0.0, 0.0, 0.0, 0.0, 1.61866713139522E9, 2021-04-17 16:45:31.395
136.0, -299.3827209472656, -85.09768676757812, -40.841575622558594, -114.95143127441406, 0.0, 0.0, 0.0, 0.0, 0.0, 0.0, 0.0, 0.0, 1.618667131395844E9, 2021-04-17 16:45:31.395
136.0, -298.1560363769531, -82.31520080566406, -42.77510452270508, -94.83077239990234, 0.0, 0.0, 0.0, 0.0, 0.0, 0.0, 0.0, 0.0, 1.618667131395844E9, 2021-04-17 16:45:31.395
137.0, -245.61793518066406, -79.18489837646484, -48.14560317993164, -133.47515869140625, 0.0, 0.0, 0.0, 0.0, 0.0, 0.0, 0.0, 0.0, 1.618667131409496E9, 2021-04-17 16:45:31.409
137.0, -221.34971618652344, -89.94459533691406, -52.042579650878906, -151.02650451660156, 0.0, 0.0, 0.0, 0.0, 0.0, 0.0, 0.0, 0.0, 1.618667131409496E9, 2021-04-17 16:45:31.409
138.0, -400.0458679199219, -95.5731430053711, -64.76945495605469, -118.37344360351562, 0.0, 0.0, 0.0, 0.0, 0.0, 0.0, 0.0, 0.0, 1.6186671314252145E9, 2021-04-17 16:45:31.425
138.0, -295.04443359375, -63.3239860534668, -48.777645111083984, -48.14934158325195, 0.0, 0.0, 0.0, 0.0, 0.0, 0.0, 0.0, 0.0, 1.6186671314252145E9, 2021-04-17 16:45:31.425
139.0, -303.9416809082031, -80.74817657470703, -66.78152465820312, -74.9270248413086, 0.0, 0.0, 0.0, 0.0, 0.0, 0.0, 0.0, 0.0, 1.618667131425905E9, 2021-04-17 16:45:31.425
139.0, -281.8874816894531, -105.22956848144531, -78.7828598022461, -72.05852508544922, 0.0, 0.0, 0.0, 0.0, 0.0, 0.0, 0.0, 0.0, 1.618667131425905E9, 2021-04-17 16:45:31.425
140.0, -308.9232177734375, -62.71064376831055, -42.812503814697266, -12.220123291015625, 0.0, 0.0, 0.0, 0.0, 0.0, 0.0, 0.0, 0.0, 1.6186671314394784E9, 2021-04-17 16:45:31.439
140.0, -303.1675109863281, -60.9940299987793, -51.76956558227539, 15.825387001037598, 0.0, 0.0, 0.0, 0.0, 0.0, 0.0, 0.0, 0.0, 1.6186671314394784E9, 2021-04-17 16:45:31.439
141.0, -297.10137939453125, -55.52629470825195, -39.39049530029297, -35.87125015258789, 0.0, 0.0, 0.0, 0.0, 0.0, 0.0, 0.0, 0.0, 1.618667131455134E9, 2021-04-17 16:45:31.455
141.0, -289.1690673828125, -93.44513702392578, -61.92713165283203, -79.62433624267578, 0.0, 0.0, 0.0, 0.0, 0.0, 0.0, 0.0, 0.0, 1.618667131455134E9, 2021-04-17 16:45:31.455
142.0, -294.128173828125, -76.8848648071289, -75.73858642578125, -80.11426544189453, 0.0, 0.0, 0.0, 0.0, 0.0, 0.0, 0.0, 0.0, 1.6186671314558558E9, 2021-04-17 16:45:31.455
142.0, -291.02032470703125, -59.38587188720703, -64.63481903076172, -59.3092041015625, 0.0, 0.0, 0.0, 0.0, 0.0, 0.0, 0.0, 0.0, 1.6186671314558558E9, 2021-04-17 16:45:31.455
143.0, -301.49951171875, -62.33291244506836, -72.27543640136719, -113.92296600341797, 0.0, 0.0, 0.0, 0.0, 0.0, 0.0, 0.0, 0.0, 1.6186671314696698E9, 2021-04-17 16:45:31.469
143.0, -299.562255859375, -78.85205078125, -61.10435485839844, -129.91477966308594, 0.0, 0.0, 0.0, 0.0, 0.0, 0.0, 0.0, 0.0, 1.6186671314696698E9, 2021-04-17 16:45:31.469
144.0, -306.0584411621094, -76.78014373779297, -73.57691955566406, -94.34832763671875, 0.0, 0.0, 0.0, 0.0, 0.0, 0.0, 0.0, 0.0, 1.6186671314852664E9, 2021-04-17 16:45:31.485
144.0, -309.67120361328125, -86.82925415039062, -81.56160736083984, -100.14891052246094, 0.0, 0.0, 0.0, 0.0, 0.0, 0.0, 0.0, 0.0, 1.6186671314852664E9, 2021-04-17 16:45:31.485
145.0, -290.36956787109375, -104.3058090209961, -83.18472290039062, -140.8352813720703, 0.0, 0.0, 0.0, 0.0, 0.0, 0.0, 0.0, 0.0, 1.6186671314859333E9, 2021-04-17 16:45:31.485
145.0, -305.32916259765625, -102.88838958740234, -78.3826904296875, -151.6099395751953, 0.0, 0.0, 0.0, 0.0, 0.0, 0.0, 0.0, 0.0, 1.6186671314859333E9, 2021-04-17 16:45:31.485
146.0, -305.5086975097656, -98.41920471191406, -68.99928283691406, -134.80282592773438, 0.0, 0.0, 0.0, 0.0, 0.0, 0.0, 0.0, 0.0, 1.6186671314994469E9, 2021-04-17 16:45:31.499
146.0, -304.1735534667969, -96.16778564453125, -68.68513488769531, -135.55455017089844, 0.0, 0.0, 0.0, 0.0, 0.0, 0.0, 0.0, 0.0, 1.6186671314994469E9, 2021-04-17 16:45:31.499
147.0, -287.8937683105469, -100.73420715332031, -73.19918823242188, -153.5135498046875, 0.0, 0.0, 0.0, 0.0, 0.0, 0.0, 0.0, 0.0, 1.6186671315151095E9, 2021-04-17 16:45:31.515
147.0, -299.4238586425781, -106.61332702636719, -67.37616729736328, -155.65650939941406, 0.0, 0.0, 0.0, 0.0, 0.0, 0.0, 0.0, 0.0, 1.6186671315151095E9, 2021-04-17 16:45:31.515
148.0, -303.0291442871094, -107.50342559814453, -65.30426025390625, -149.17152404785156, 0.0, 0.0, 0.0, 0.0, 0.0, 0.0, 0.0, 0.0, 1.618667131515849E9, 2021-04-17 16:45:31.515
148.0, -290.7547912597656, -86.72827911376953, -58.15731430053711, -118.53800201416016, 0.0, 0.0, 0.0, 0.0, 0.0, 0.0, 0.0, 0.0, 1.618667131515849E9, 2021-04-17 16:45:31.515
149.0, -287.2093505859375, -97.12894439697266, -74.25010681152344, -176.20352172851562, 0.0, 0.0, 0.0, 0.0, 0.0, 0.0, 0.0, 0.0, 1.6186671315294707E9, 2021-04-17 16:45:31.529
149.0, -296.7535705566406, -124.40776824951172, -77.34674072265625, -160.82130432128906, 0.0, 0.0, 0.0, 0.0, 0.0, 0.0, 0.0, 0.0, 1.6186671315294707E9, 2021-04-17 16:45:31.529
150.0, -308.6464538574219, -95.45720672607422, -78.80904388427734, -136.5792694091797, 0.0, 0.0, 0.0, 0.0, 0.0, 0.0, 0.0, 0.0, 1.6186671315451276E9, 2021-04-17 16:45:31.545
150.0, -306.10333251953125, -87.27056884765625, -71.8752670288086, -112.21756744384766, 0.0, 0.0, 0.0, 0.0, 0.0, 0.0, 0.0, 0.0, 1.6186671315451276E9, 2021-04-17 16:45:31.545
151.0, -301.0993347167969, -94.18937683105469, -79.38872528076172, -147.74661254882812, 0.0, 0.0, 0.0, 0.0, 0.0, 0.0, 0.0, 0.0, 1.6186671315458536E9, 2021-04-17 16:45:31.545
151.0, -300.830078125, -93.83035278320312, -79.04839324951172, -159.9835662841797, 0.0, 0.0, 0.0, 0.0, 0.0, 0.0, 0.0, 0.0, 1.6186671315458536E9, 2021-04-17 16:45:31.545
152.0, -317.3379821777344, -102.03569030761719, -93.0730209350586, -129.3724822998047, 0.0, 0.0, 0.0, 0.0, 0.0, 0.0, 0.0, 0.0, 1.618667131575848E9, 2021-04-17 16:45:31.575
152.0, -299.37152099609375, -100.4948501586914, -82.37690734863281, -127.21456909179688, 0.0, 0.0, 0.0, 0.0, 0.0, 0.0, 0.0, 0.0, 1.618667131575848E9, 2021-04-17 16:45:31.575
153.0, -297.3070983886719, -98.09757232666016, -76.3332290649414, -146.347900390625, 0.0, 0.0, 0.0, 0.0, 0.0, 0.0, 0.0, 0.0, 1.6186671315766115E9, 2021-04-17 16:45:31.576
153.0, -304.0762939453125, -100.63322448730469, -78.64822387695312, -137.7835235595703, 0.0, 0.0, 0.0, 0.0, 0.0, 0.0, 0.0, 0.0, 1.6186671315766115E9, 2021-04-17 16:45:31.576
154.0, -316.2571716308594, -93.3666000366211, -79.5083999633789, -106.15518951416016, 0.0, 0.0, 0.0, 0.0, 0.0, 0.0, 0.0, 0.0, 1.618667131577342E9, 2021-04-17 16:45:31.577
154.0, -312.8800354003906, -104.05523681640625, -88.02789306640625, -125.66625213623047, 0.0, 0.0, 0.0, 0.0, 0.0, 0.0, 0.0, 0.0, 1.618667131577342E9, 2021-04-17 16:45:31.577
155.0, -309.7085876464844, -122.66497802734375, -99.1391372680664, -168.15525817871094, 0.0, 0.0, 0.0, 0.0, 0.0, 0.0, 0.0, 0.0, 1.6186671315894375E9, 2021-04-17 16:45:31.589
155.0, -297.9765319824219, -104.9490737915039, -92.96082305908203, -148.2477569580078, 0.0, 0.0, 0.0, 0.0, 0.0, 0.0, 0.0, 0.0, 1.6186671315894375E9, 2021-04-17 16:45:31.589
156.0, -316.7246398925781, -75.19816589355469, -63.969120025634766, -105.01451873779297, 0.0, 0.0, 0.0, 0.0, 0.0, 0.0, 0.0, 0.0, 1.6186671316216316E9, 2021-04-17 16:45:31.621
156.0, -312.8164367675781, -81.67193603515625, -88.18497467041016, -80.61915588378906, 0.0, 0.0, 0.0, 0.0, 0.0, 0.0, 0.0, 0.0, 1.6186671316216316E9, 2021-04-17 16:45:31.621
157.0, -300.5234069824219, -89.60800170898438, -61.93461227416992, -108.1298599243164, 0.0, 0.0, 0.0, 0.0, 0.0, 0.0, 0.0, 0.0, 1.618667131622201E9, 2021-04-17 16:45:31.622
157.0, -306.09210205078125, -98.92035675048828, -81.84210205078125, -108.52628326416016, 0.0, 0.0, 0.0, 0.0, 0.0, 0.0, 0.0, 0.0, 1.618667131622201E9, 2021-04-17 16:45:31.622
158.0, -305.3179626464844, -87.2219467163086, -78.7454605102539, -78.54724884033203, 0.0, 0.0, 0.0, 0.0, 0.0, 0.0, 0.0, 0.0, 1.618667131622938E9, 2021-04-17 16:45:31.622
158.0, -315.0977783203125, -92.17357635498047, -77.8965072631836, -61.70273971557617, 0.0, 0.0, 0.0, 0.0, 0.0, 0.0, 0.0, 0.0, 1.618667131622938E9, 2021-04-17 16:45:31.622
159.0, -300.747802734375, -97.42439270019531, -80.71265411376953, -108.01017761230469, 0.0, 0.0, 0.0, 0.0, 0.0, 0.0, 0.0, 0.0, 1.618667131623704E9, 2021-04-17 16:45:31.623
159.0, -311.604736328125, -102.14041137695312, -84.02994537353516, -100.79965209960938, 0.0, 0.0, 0.0, 0.0, 0.0, 0.0, 0.0, 0.0, 1.618667131623704E9, 2021-04-17 16:45:31.623
160.0, -320.6739807128906, -100.11711883544922, -81.10533905029297, -74.70637512207031, 0.0, 0.0, 0.0, 0.0, 0.0, 0.0, 0.0, 0.0, 1.618667131634514E9, 2021-04-17 16:45:31.634
160.0, -307.0345764160156, -97.22618103027344, -80.84354400634766, -81.44567108154297, 0.0, 0.0, 0.0, 0.0, 0.0, 0.0, 0.0, 0.0, 1.618667131634514E9, 2021-04-17 16:45:31.634
161.0, -303.9603576660156, -104.5863037109375, -83.30440521240234, -124.97810363769531, 0.0, 0.0, 0.0, 0.0, 0.0, 0.0, 0.0, 0.0, 1.618667131649449E9, 2021-04-17 16:45:31.649
161.0, -302.789794921875, -102.76496887207031, -90.80290222167969, -129.5557403564453, 0.0, 0.0, 0.0, 0.0, 0.0, 0.0, 0.0, 0.0, 1.618667131649449E9, 2021-04-17 16:45:31.649
162.0, -322.84686279296875, -118.46133422851562, -93.08798217773438, -99.8198013305664, 0.0, 0.0, 0.0, 0.0, 0.0, 0.0, 0.0, 0.0, 1.6186671316653328E9, 2021-04-17 16:45:31.665
162.0, -308.30987548828125, -91.8407211303711, -86.91340637207031, -97.29911041259766, 0.0, 0.0, 0.0, 0.0, 0.0, 0.0, 0.0, 0.0, 1.6186671316653328E9, 2021-04-17 16:45:31.665
163.0, -297.52398681640625, -107.05463409423828, -75.03174591064453, -183.41030883789062, 0.0, 0.0, 0.0, 0.0, 0.0, 0.0, 0.0, 0.0, 1.61866713166582E9, 2021-04-17 16:45:31.665
163.0, -316.85552978515625, -99.50751495361328, -84.88263702392578, -99.24759674072266, 0.0, 0.0, 0.0, 0.0, 0.0, 0.0, 0.0, 0.0, 1.61866713166582E9, 2021-04-17 16:45:31.665
164.0, -320.5094299316406, -98.87547302246094, -94.31840515136719, -129.32760620117188, 0.0, 0.0, 0.0, 0.0, 0.0, 0.0, 0.0, 0.0, 1.618667131679468E9, 2021-04-17 16:45:31.679
164.0, -311.87774658203125, -98.26960754394531, -85.63809967041016, -89.16482543945312, 0.0, 0.0, 0.0, 0.0, 0.0, 0.0, 0.0, 0.0, 1.618667131679468E9, 2021-04-17 16:45:31.679
165.0, -314.87713623046875, -108.31124114990234, -96.58478546142578, -140.00502014160156, 0.0, 0.0, 0.0, 0.0, 0.0, 0.0, 0.0, 0.0, 1.6186671316952155E9, 2021-04-17 16:45:31.695
165.0, -318.13458251953125, -108.46831512451172, -99.17279815673828, -142.5182342529297, 0.0, 0.0, 0.0, 0.0, 0.0, 0.0, 0.0, 0.0, 1.6186671316952155E9, 2021-04-17 16:45:31.695
166.0, -322.3157958984375, -108.96572875976562, -95.98640441894531, -131.53414916992188, 0.0, 0.0, 0.0, 0.0, 0.0, 0.0, 0.0, 0.0, 1.6186671316959045E9, 2021-04-17 16:45:31.695
166.0, -319.1817626953125, -108.39352416992188, -99.9432144165039, -133.09368896484375, 0.0, 0.0, 0.0, 0.0, 0.0, 0.0, 0.0, 0.0, 1.6186671316959045E9, 2021-04-17 16:45:31.695
167.0, -311.75433349609375, -110.4317626953125, -103.7130355834961, -162.3172607421875, 0.0, 0.0, 0.0, 0.0, 0.0, 0.0, 0.0, 0.0, 1.6186671317094555E9, 2021-04-17 16:45:31.709
167.0, -324.9898376464844, -111.751953125, -104.04962921142578, -134.5933837890625, 0.0, 0.0, 0.0, 0.0, 0.0, 0.0, 0.0, 0.0, 1.6186671317094555E9, 2021-04-17 16:45:31.709
168.0, -331.3102722167969, -120.26022338867188, -99.79361724853516, -120.2733154296875, 0.0, 0.0, 0.0, 0.0, 0.0, 0.0, 0.0, 0.0, 1.6186671317251532E9, 2021-04-17 16:45:31.725
168.0, -313.130615234375, -116.15755462646484, -104.88736724853516, -132.09140014648438, 0.0, 0.0, 0.0, 0.0, 0.0, 0.0, 0.0, 0.0, 1.6186671317251532E9, 2021-04-17 16:45:31.725
169.0, -312.87628173828125, -129.65858459472656, -112.16520690917969, -146.40399169921875, 0.0, 0.0, 0.0, 0.0, 0.0, 0.0, 0.0, 0.0, 1.6186671317258584E9, 2021-04-17 16:45:31.725
169.0, -320.49072265625, -88.6655502319336, -105.17533874511719, -104.7377700805664, 0.0, 0.0, 0.0, 0.0, 0.0, 0.0, 0.0, 0.0, 1.6186671317258584E9, 2021-04-17 16:45:31.725
170.0, -337.1445007324219, -102.36853790283203, -93.69384002685547, -91.53218078613281, 0.0, 0.0, 0.0, 0.0, 0.0, 0.0, 0.0, 0.0, 1.6186671317395036E9, 2021-04-17 16:45:31.739
170.0, -327.55914306640625, -102.10675048828125, -98.4584732055664, -103.35774230957031, 0.0, 0.0, 0.0, 0.0, 0.0, 0.0, 0.0, 0.0, 1.6186671317395036E9, 2021-04-17 16:45:31.739
171.0, -324.39892578125, -116.20990753173828, -90.05866241455078, -138.84939575195312, 0.0, 0.0, 0.0, 0.0, 0.0, 0.0, 0.0, 0.0, 1.6186671317552755E9, 2021-04-17 16:45:31.755
171.0, -332.286376953125, -105.83917236328125, -106.03177642822266, -125.91307830810547, 0.0, 0.0, 0.0, 0.0, 0.0, 0.0, 0.0, 0.0, 1.6186671317552755E9, 2021-04-17 16:45:31.755
172.0, -340.6600036621094, -139.92088317871094, -142.58181762695312, -93.1552963256836, 0.0, 0.0, 0.0, 0.0, 0.0, 0.0, 0.0, 0.0, 1.6186671317557862E9, 2021-04-17 16:45:31.755
172.0, -325.419921875, -107.3201675415039, -108.91897583007812, -135.37876892089844, 0.0, 0.0, 0.0, 0.0, 0.0, 0.0, 0.0, 0.0, 1.6186671317557862E9, 2021-04-17 16:45:31.755
173.0, -312.91741943359375, -91.23860168457031, -65.58849334716797, -182.18360900878906, 0.0, 0.0, 0.0, 0.0, 0.0, 0.0, 0.0, 0.0, 1.6186671317694533E9, 2021-04-17 16:45:31.769
173.0, -350.3351135253906, -111.82675170898438, -88.85441589355469, -50.311004638671875, 0.0, 0.0, 0.0, 0.0, 0.0, 0.0, 0.0, 0.0, 1.6186671317694533E9, 2021-04-17 16:45:31.769
174.0, -352.5865478515625, -100.52851104736328, -90.26809692382812, -89.32563781738281, 0.0, 0.0, 0.0, 0.0, 0.0, 0.0, 0.0, 0.0, 1.6186671317850945E9, 2021-04-17 16:45:31.785
174.0, -339.49688720703125, -104.55638122558594, -91.80145263671875, -81.48680877685547, 0.0, 0.0, 0.0, 0.0, 0.0, 0.0, 0.0, 0.0, 1.6186671317850945E9, 2021-04-17 16:45:31.785
175.0, -333.9805603027344, -104.38060760498047, -97.79277038574219, -114.90655517578125, 0.0, 0.0, 0.0, 0.0, 0.0, 0.0, 0.0, 0.0, 1.6186671317858264E9, 2021-04-17 16:45:31.785
175.0, -352.4855651855469, -106.65446472167969, -111.00958251953125, -113.612548828125, 0.0, 0.0, 0.0, 0.0, 0.0, 0.0, 0.0, 0.0, 1.6186671317858264E9, 2021-04-17 16:45:31.785
176.0, -345.4508056640625, -105.02387237548828, -101.33445739746094, -103.48490142822266, 0.0, 0.0, 0.0, 0.0, 0.0, 0.0, 0.0, 0.0, 1.618667131799543E9, 2021-04-17 16:45:31.799
176.0, -342.4327087402344, -139.2963104248047, -105.9644546508789, -97.87505340576172, 0.0, 0.0, 0.0, 0.0, 0.0, 0.0, 0.0, 0.0, 1.618667131799543E9, 2021-04-17 16:45:31.799
177.0, -327.3459777832031, -103.8420639038086, -98.50709533691406, -117.67781829833984, 0.0, 0.0, 0.0, 0.0, 0.0, 0.0, 0.0, 0.0, 1.618667131815102E9, 2021-04-17 16:45:31.815
177.0, -349.9200134277344, -102.4807357788086, -96.03875732421875, -103.06229400634766, 0.0, 0.0, 0.0, 0.0, 0.0, 0.0, 0.0, 0.0, 1.618667131815102E9, 2021-04-17 16:45:31.815
178.0, -360.35430908203125, -113.67425537109375, -106.12152862548828, -66.50476837158203, 0.0, 0.0, 0.0, 0.0, 0.0, 0.0, 0.0, 0.0, 1.6186671318158352E9, 2021-04-17 16:45:31.815
178.0, -341.9390563964844, -120.5481948852539, -95.2833023071289, -87.53797149658203, 0.0, 0.0, 0.0, 0.0, 0.0, 0.0, 0.0, 0.0, 1.6186671318158352E9, 2021-04-17 16:45:31.815
179.0, -346.195068359375, -126.22162628173828, -104.4797134399414, -102.35171508789062, 0.0, 0.0, 0.0, 0.0, 0.0, 0.0, 0.0, 0.0, 1.6186671318294892E9, 2021-04-17 16:45:31.829
179.0, -355.84027099609375, -120.30136108398438, -103.22685241699219, -105.54558563232422, 0.0, 0.0, 0.0, 0.0, 0.0, 0.0, 0.0, 0.0, 1.6186671318294892E9, 2021-04-17 16:45:31.829
180.0, -357.28759765625, -131.43878173828125, -117.8087158203125, -99.54304504394531, 0.0, 0.0, 0.0, 0.0, 0.0, 0.0, 0.0, 0.0, 1.618667131845191E9, 2021-04-17 16:45:31.845
180.0, -342.4215087890625, -107.54456329345703, -114.68590545654297, -70.24467468261719, 0.0, 0.0, 0.0, 0.0, 0.0, 0.0, 0.0, 0.0, 1.618667131845191E9, 2021-04-17 16:45:31.845
181.0, -354.77813720703125, -125.13705444335938, -123.43352508544922, -126.42170715332031, 0.0, 0.0, 0.0, 0.0, 0.0, 0.0, 0.0, 0.0, 1.6186671318458374E9, 2021-04-17 16:45:31.845
181.0, -363.1517639160156, -111.42658233642578, -98.62677001953125, -116.57829284667969, 0.0, 0.0, 0.0, 0.0, 0.0, 0.0, 0.0, 0.0, 1.6186671318458374E9, 2021-04-17 16:45:31.845
182.0, -365.31341552734375, -108.5244140625, -114.9963150024414, -110.08208465576172, 0.0, 0.0, 0.0, 0.0, 0.0, 0.0, 0.0, 0.0, 1.6186671318596368E9, 2021-04-17 16:45:31.859
182.0, -353.9029846191406, -106.9573974609375, -118.68011474609375, -119.74598693847656, 0.0, 0.0, 0.0, 0.0, 0.0, 0.0, 0.0, 0.0, 1.6186671318596368E9, 2021-04-17 16:45:31.859
183.0, -362.0597229003906, -133.1703643798828, -113.26100158691406, -129.2079315185547, 0.0, 0.0, 0.0, 0.0, 0.0, 0.0, 0.0, 0.0, 1.618667131875334E9, 2021-04-17 16:45:31.875
183.0, -366.6672668457031, -164.54437255859375, -167.0258026123047, -151.58749389648438, 0.0, 0.0, 0.0, 0.0, 0.0, 0.0, 0.0, 0.0, 1.618667131875334E9, 2021-04-17 16:45:31.875
184.0, -363.54071044921875, -97.58895111083984, -79.63182067871094, -117.11309814453125, 0.0, 0.0, 0.0, 0.0, 0.0, 0.0, 0.0, 0.0, 1.6186671318760924E9, 2021-04-17 16:45:31.876
184.0, -368.413818359375, -115.96308135986328, -125.12770080566406, -86.1654281616211, 0.0, 0.0, 0.0, 0.0, 0.0, 0.0, 0.0, 0.0, 1.6186671318760924E9, 2021-04-17 16:45:31.876
185.0, -357.95330810546875, -98.89791107177734, -104.93598175048828, -98.23782348632812, 0.0, 0.0, 0.0, 0.0, 0.0, 0.0, 0.0, 0.0, 1.6186671318894324E9, 2021-04-17 16:45:31.889
185.0, -384.5552062988281, -122.18253326416016, -124.64899444580078, -101.25592041015625, 0.0, 0.0, 0.0, 0.0, 0.0, 0.0, 0.0, 0.0, 1.6186671318894324E9, 2021-04-17 16:45:31.889
186.0, -365.0553894042969, -89.73889923095703, -117.09439849853516, -78.07228088378906, 0.0, 0.0, 0.0, 0.0, 0.0, 0.0, 0.0, 0.0, 1.6186671319051745E9, 2021-04-17 16:45:31.905
186.0, -373.6982727050781, -119.4823226928711, -118.87832641601562, -114.22215270996094, 0.0, 0.0, 0.0, 0.0, 0.0, 0.0, 0.0, 0.0, 1.6186671319051745E9, 2021-04-17 16:45:31.905
187.0, -352.5678405761719, -164.7052001953125, -142.6528778076172, -168.5516815185547, 0.0, 0.0, 0.0, 0.0, 0.0, 0.0, 0.0, 0.0, 1.6186671319058743E9, 2021-04-17 16:45:31.905
187.0, -373.88153076171875, -98.69222259521484, -109.4762191772461, -52.36420822143555, 0.0, 0.0, 0.0, 0.0, 0.0, 0.0, 0.0, 0.0, 1.6186671319058743E9, 2021-04-17 16:45:31.905
188.0, -397.2073059082031, -120.2265625, -129.18923950195312, -83.4951400756836, 0.0, 0.0, 0.0, 0.0, 0.0, 0.0, 0.0, 0.0, 1.6186671319194996E9, 2021-04-17 16:45:31.919
188.0, -382.3860778808594, -117.03643035888672, -121.28308868408203, -105.48200988769531, 0.0, 0.0, 0.0, 0.0, 0.0, 0.0, 0.0, 0.0, 1.6186671319194996E9, 2021-04-17 16:45:31.919
189.0, -380.7255554199219, -129.0377655029297, -121.34292602539062, -131.6313934326172, 0.0, 0.0, 0.0, 0.0, 0.0, 0.0, 0.0, 0.0, 1.618667131935108E9, 2021-04-17 16:45:31.935
189.0, -390.3109130859375, -131.3677215576172, -127.56985473632812, -89.50141906738281, 0.0, 0.0, 0.0, 0.0, 0.0, 0.0, 0.0, 0.0, 1.618667131935108E9, 2021-04-17 16:45:31.935
190.0, -376.90338134765625, -140.89698791503906, -133.4901123046875, -83.95140075683594, 0.0, 0.0, 0.0, 0.0, 0.0, 0.0, 0.0, 0.0, 1.6186671319358497E9, 2021-04-17 16:45:31.935
190.0, -379.32684326171875, -112.62709045410156, -113.41433715820312, -92.67658996582031, 0.0, 0.0, 0.0, 0.0, 0.0, 0.0, 0.0, 0.0, 1.6186671319358497E9, 2021-04-17 16:45:31.935
191.0, -388.90472412109375, -133.05442810058594, -130.87966918945312, -117.91717529296875, 0.0, 0.0, 0.0, 0.0, 0.0, 0.0, 0.0, 0.0, 1.6186671319495063E9, 2021-04-17 16:45:31.949
191.0, -390.47174072265625, -124.28809356689453, -135.33763122558594, -98.17050170898438, 0.0, 0.0, 0.0, 0.0, 0.0, 0.0, 0.0, 0.0, 1.6186671319495063E9, 2021-04-17 16:45:31.949
192.0, -397.92535400390625, -115.24127960205078, -134.71307373046875, -80.35362243652344, 0.0, 0.0, 0.0, 0.0, 0.0, 0.0, 0.0, 0.0, 1.6186671319653473E9, 2021-04-17 16:45:31.965
192.0, -385.7781677246094, -128.2374267578125, -132.29708862304688, -121.22698974609375, 0.0, 0.0, 0.0, 0.0, 0.0, 0.0, 0.0, 0.0, 1.6186671319653473E9, 2021-04-17 16:45:31.965
193.0, -387.84259033203125, -120.44721984863281, -142.29383850097656, -129.86241149902344, 0.0, 0.0, 0.0, 0.0, 0.0, 0.0, 0.0, 0.0, 1.6186671319658911E9, 2021-04-17 16:45:31.965
193.0, -389.764892578125, -133.35360717773438, -141.26162719726562, -167.5755615234375, 0.0, 0.0, 0.0, 0.0, 0.0, 0.0, 0.0, 0.0, 1.6186671319658911E9, 2021-04-17 16:45:31.965
194.0, -399.76165771484375, -155.3292694091797, -168.82469177246094, -103.27920532226562, 0.0, 0.0, 0.0, 0.0, 0.0, 0.0, 0.0, 0.0, 1.6186671319794881E9, 2021-04-17 16:45:31.979
194.0, -374.0647888183594, -155.6995086669922, -178.3502197265625, -175.06658935546875, 0.0, 0.0, 0.0, 0.0, 0.0, 0.0, 0.0, 0.0, 1.6186671319794881E9, 2021-04-17 16:45:31.979
195.0, -390.4044189453125, -126.66293334960938, -139.55624389648438, -124.4470443725586, 0.0, 0.0, 0.0, 0.0, 0.0, 0.0, 0.0, 0.0, 1.6186671319951036E9, 2021-04-17 16:45:31.995
195.0, -405.3041687011719, -111.90155029296875, -166.91734313964844, -130.33738708496094, 0.0, 0.0, 0.0, 0.0, 0.0, 0.0, 0.0, 0.0, 1.6186671319951036E9, 2021-04-17 16:45:31.995
196.0, -398.22454833984375, -119.02979278564453, -133.74069213867188, -125.76722717285156, 0.0, 0.0, 0.0, 0.0, 0.0, 0.0, 0.0, 0.0, 1.6186671319958727E9, 2021-04-17 16:45:31.995
196.0, -397.95526123046875, -111.57991790771484, -166.8911590576172, -95.30574035644531, 0.0, 0.0, 0.0, 0.0, 0.0, 0.0, 0.0, 0.0, 1.6186671319958727E9, 2021-04-17 16:45:31.995
197.0, -397.3307189941406, -150.673095703125, -130.8983612060547, -171.2705841064453, 0.0, 0.0, 0.0, 0.0, 0.0, 0.0, 0.0, 0.0, 1.6186671320094285E9, 2021-04-17 16:45:32.009
197.0, -406.4336242675781, -102.76123046875, -130.56552124023438, -92.62797546386719, 0.0, 0.0, 0.0, 0.0, 0.0, 0.0, 0.0, 0.0, 1.6186671320094285E9, 2021-04-17 16:45:32.009
198.0, -395.0157165527344, -99.72443389892578, -145.88414001464844, -98.17050170898438, 0.0, 0.0, 0.0, 0.0, 0.0, 0.0, 0.0, 0.0, 1.618667132025396E9, 2021-04-17 16:45:32.025
198.0, -386.7355651855469, -137.97613525390625, -195.83424377441406, -121.61593627929688, 0.0, 0.0, 0.0, 0.0, 0.0, 0.0, 0.0, 0.0, 1.618667132025396E9, 2021-04-17 16:45:32.025
199.0, -391.2458801269531, -100.85014343261719, -80.6715087890625, -106.99292755126953, 0.0, 0.0, 0.0, 0.0, 0.0, 0.0, 0.0, 0.0, 1.6186671320258534E9, 2021-04-17 16:45:32.025
199.0, -405.94744873046875, -130.94137573242188, -76.4117660522461, -101.3643798828125, 0.0, 0.0, 0.0, 0.0, 0.0, 0.0, 0.0, 0.0, 1.6186671320258534E9, 2021-04-17 16:45:32.025
200.0, -406.99835205078125, -155.80796813964844, -144.1263885498047, -109.2705307006836, 0.0, 0.0, 0.0, 0.0, 0.0, 0.0, 0.0, 0.0, 1.61866713204027E9, 2021-04-17 16:45:32.040
200.0, -393.7104797363281, -122.29473114013672, -216.0895538330078, -127.08740997314453, 0.0, 0.0, 0.0, 0.0, 0.0, 0.0, 0.0, 0.0, 1.61866713204027E9, 2021-04-17 16:45:32.040
0.0, -404.8142395019531, -154.5270538330078, -185.79075622558594, -156.2287139892578, 0.0, 0.0, 0.0, 0.0, 0.0, 0.0, 0.0, 0.0, 1.618667132041028E9, 2021-04-17 16:45:32.041
101.0, -409.7060546875, -114.4353256225586, -251.74014282226562, -145.74951171875, 0.0, 0.0, 0.0, 0.0, 0.0, 0.0, 0.0, 0.0, 1.6186671320544767E9, 2021-04-17 16:45:32.054
101.0, -412.9522705078125, -124.5517578125, -209.2548828125, -113.71353149414062, 0.0, 0.0, 0.0, 0.0, 0.0, 0.0, 0.0, 0.0, 1.6186671320544767E9, 2021-04-17 16:45:32.054
102.0, -397.8655090332031, -161.5094451904297, -188.04591369628906, -167.70272827148438, 0.0, 0.0, 0.0, 0.0, 0.0, 0.0, 0.0, 0.0, 1.6186671320702112E9, 2021-04-17 16:45:32.070
102.0, -396.0666198730469, -139.9489288330078, -207.51956176757812, -127.44644165039062, 0.0, 0.0, 0.0, 0.0, 0.0, 0.0, 0.0, 0.0, 1.6186671320702112E9, 2021-04-17 16:45:32.070
103.0, -411.643310546875, -154.7028350830078, -213.3687744140625, -124.39842224121094, 0.0, 0.0, 0.0, 0.0, 0.0, 0.0, 0.0, 0.0, 1.618667132070943E9, 2021-04-17 16:45:32.070
103.0, -412.29779052734375, -148.00466918945312, -210.54141235351562, -103.98604583740234, 0.0, 0.0, 0.0, 0.0, 0.0, 0.0, 0.0, 0.0, 1.618667132070943E9, 2021-04-17 16:45:32.070
104.0, -397.19232177734375, -135.8724365234375, -241.5975341796875, -128.8750762939453, 0.0, 0.0, 0.0, 0.0, 0.0, 0.0, 0.0, 0.0, 1.6186671320844707E9, 2021-04-17 16:45:32.084
104.0, -399.3240661621094, -162.56036376953125, -167.84671020507812, -129.7128143310547, 0.0, 0.0, 0.0, 0.0, 0.0, 0.0, 0.0, 0.0, 1.6186671320844707E9, 2021-04-17 16:45:32.084
105.0, -423.1247863769531, -150.13267517089844, -192.61981201171875, -120.2546157836914, 0.0, 0.0, 0.0, 0.0, 0.0, 0.0, 0.0, 0.0, 1.6186671321003745E9, 2021-04-17 16:45:32.100
105.0, -399.9860534667969, -135.51715087890625, -216.3345184326172, -134.43630981445312, 0.0, 0.0, 0.0, 0.0, 0.0, 0.0, 0.0, 0.0, 1.6186671321003745E9, 2021-04-17 16:45:32.100
106.0, -405.67816162109375, -168.30859375, -157.31141662597656, -156.2212371826172, 0.0, 0.0, 0.0, 0.0, 0.0, 0.0, 0.0, 0.0, 1.618667132100983E9, 2021-04-17 16:45:32.100
106.0, -398.64715576171875, -136.18658447265625, -74.03131866455078, -174.1091766357422, 0.0, 0.0, 0.0, 0.0, 0.0, 0.0, 0.0, 0.0, 1.618667132100983E9, 2021-04-17 16:45:32.100
107.0, -390.97662353515625, -202.31549072265625, -136.75692749023438, -184.51731872558594, 0.0, 0.0, 0.0, 0.0, 0.0, 0.0, 0.0, 0.0, 1.6186671321308124E9, 2021-04-17 16:45:32.130
107.0, -416.1050109863281, -64.91905212402344, -279.3331298828125, -112.57659912109375, 0.0, 0.0, 0.0, 0.0, 0.0, 0.0, 0.0, 0.0, 1.6186671321308124E9, 2021-04-17 16:45:32.130
108.0, -395.0830383300781, -38.706092834472656, -228.4181365966797, -133.2058868408203, 0.0, 0.0, 0.0, 0.0, 0.0, 0.0, 0.0, 0.0, 1.618667132131544E9, 2021-04-17 16:45:32.131
108.0, -421.1763000488281, -163.87306213378906, -240.90191650390625, -155.86593627929688, 0.0, 0.0, 0.0, 0.0, 0.0, 0.0, 0.0, 0.0, 1.618667132131544E9, 2021-04-17 16:45:32.131
109.0, -417.64959716796875, -58.179752349853516, -241.73965454101562, -158.36793518066406, 0.0, 0.0, 0.0, 0.0, 0.0, 0.0, 0.0, 0.0, 1.6186671321323123E9, 2021-04-17 16:45:32.132
109.0, -405.4500427246094, -164.0226593017578, -173.97267150878906, -169.28843688964844, 0.0, 0.0, 0.0, 0.0, 0.0, 0.0, 0.0, 0.0, 1.6186671321323123E9, 2021-04-17 16:45:32.132
110.0, -382.8760070800781, -69.87815856933594, -229.11749267578125, -162.6239471435547, 0.0, 0.0, 0.0, 0.0, 0.0, 0.0, 0.0, 0.0, 1.6186671321444454E9, 2021-04-17 16:45:32.144
110.0, -416.3481140136719, -122.7453842163086, -248.61358642578125, -185.7327880859375, 0.0, 0.0, 0.0, 0.0, 0.0, 0.0, 0.0, 0.0, 1.6186671321444454E9, 2021-04-17 16:45:32.144
111.0, -429.9239501953125, -110.0970458984375, -258.1578063964844, -183.67584228515625, 0.0, 0.0, 0.0, 0.0, 0.0, 0.0, 0.0, 0.0, 1.6186671321602194E9, 2021-04-17 16:45:32.160
111.0, -420.33856201171875, -137.15896606445312, -242.86911010742188, -139.24581909179688, 0.0, 0.0, 0.0, 0.0, 0.0, 0.0, 0.0, 0.0, 1.6186671321602194E9, 2021-04-17 16:45:32.160
112.0, -414.3584899902344, -137.54417419433594, -268.868896484375, -137.9405975341797, 0.0, 0.0, 0.0, 0.0, 0.0, 0.0, 0.0, 0.0, 1.6186671321608331E9, 2021-04-17 16:45:32.160
112.0, -413.9396057128906, -101.7271499633789, -149.2257537841797, -162.71743774414062, 0.0, 0.0, 0.0, 0.0, 0.0, 0.0, 0.0, 0.0, 1.6186671321608331E9, 2021-04-17 16:45:32.160
113.0, -404.8179931640625, -114.89533996582031, -207.41485595703125, -165.73553466796875, 0.0, 0.0, 0.0, 0.0, 0.0, 0.0, 0.0, 0.0, 1.6186671321746714E9, 2021-04-17 16:45:32.174
113.0, -426.5168762207031, -172.43743896484375, -133.00205993652344, -95.25711822509766, 0.0, 0.0, 0.0, 0.0, 0.0, 0.0, 0.0, 0.0, 1.6186671321746714E9, 2021-04-17 16:45:32.174
114.0, -412.5334167480469, -184.44252014160156, -287.11212158203125, -140.30047607421875, 0.0, 0.0, 0.0, 0.0, 0.0, 0.0, 0.0, 0.0, 1.618667132190146E9, 2021-04-17 16:45:32.190
114.0, -433.686279296875, -145.5438232421875, -172.98907470703125, -162.16392517089844, 0.0, 0.0, 0.0, 0.0, 0.0, 0.0, 0.0, 0.0, 1.618667132190146E9, 2021-04-17 16:45:32.190
115.0, -444.1280822753906, -148.46841430664062, -250.73411560058594, -124.58168029785156, 0.0, 0.0, 0.0, 0.0, 0.0, 0.0, 0.0, 0.0, 1.6186671321908681E9, 2021-04-17 16:45:32.190
115.0, -432.3698425292969, -174.26251220703125, -197.48915100097656, -132.38685607910156, 0.0, 0.0, 0.0, 0.0, 0.0, 0.0, 0.0, 0.0, 1.6186671321908681E9, 2021-04-17 16:45:32.190
116.0, -428.1063537597656, -166.75279235839844, -164.64161682128906, -154.2203826904297, 0.0, 0.0, 0.0, 0.0, 0.0, 0.0, 0.0, 0.0, 1.6186671322045524E9, 2021-04-17 16:45:32.204
116.0, -446.7721862792969, -134.23435974121094, -279.527587890625, -157.09637451171875, 0.0, 0.0, 0.0, 0.0, 0.0, 0.0, 0.0, 0.0, 1.6186671322045524E9, 2021-04-17 16:45:32.204
117.0, -433.005615234375, -170.4665069580078, -259.8332824707031, -124.66769409179688, 0.0, 0.0, 0.0, 0.0, 0.0, 0.0, 0.0, 0.0, 1.6186671322201974E9, 2021-04-17 16:45:32.220
117.0, -432.01080322265625, -172.03726196289062, -201.93215942382812, -145.40170288085938, 0.0, 0.0, 0.0, 0.0, 0.0, 0.0, 0.0, 0.0, 1.6186671322201974E9, 2021-04-17 16:45:32.220
118.0, -421.1800537109375, -79.26531219482422, -232.54698181152344, -193.03680419921875, 0.0, 0.0, 0.0, 0.0, 0.0, 0.0, 0.0, 0.0, 1.618667132220883E9, 2021-04-17 16:45:32.220
118.0, -422.2384338378906, -10.16691780090332, -188.15061950683594, -180.95692443847656, 0.0, 0.0, 0.0, 0.0, 0.0, 0.0, 0.0, 0.0, 1.618667132220883E9, 2021-04-17 16:45:32.220
119.0, -420.9818420410156, -70.43914794921875, -153.6463165283203, -180.44830322265625, 0.0, 0.0, 0.0, 0.0, 0.0, 0.0, 0.0, 0.0, 1.61866713223446E9, 2021-04-17 16:45:32.234
119.0, -417.38031005859375, -141.69920349121094, -261.33673095703125, -193.41079711914062, 0.0, 0.0, 0.0, 0.0, 0.0, 0.0, 0.0, 0.0, 1.61866713223446E9, 2021-04-17 16:45:32.234
120.0, -409.5901184082031, -133.8416748046875, -252.7574005126953, -214.6683807373047, 0.0, 0.0, 0.0, 0.0, 0.0, 0.0, 0.0, 0.0, 1.6186671322502968E9, 2021-04-17 16:45:32.250
120.0, -440.2236328125, -136.54562377929688, -211.95509338378906, -172.22052001953125, 0.0, 0.0, 0.0, 0.0, 0.0, 0.0, 0.0, 0.0, 1.6186671322502968E9, 2021-04-17 16:45:32.250
121.0, -436.8427429199219, -181.4057159423828, -267.320556640625, -140.24063110351562, 0.0, 0.0, 0.0, 0.0, 0.0, 0.0, 0.0, 0.0, 1.618667132250928E9, 2021-04-17 16:45:32.250
121.0, -429.5350036621094, -176.29701232910156, -244.72035217285156, -137.45816040039062, 0.0, 0.0, 0.0, 0.0, 0.0, 0.0, 0.0, 0.0, 1.618667132250928E9, 2021-04-17 16:45:32.250
122.0, -417.20452880859375, -187.8832244873047, -226.9259033203125, -185.33261108398438, 0.0, 0.0, 0.0, 0.0, 0.0, 0.0, 0.0, 0.0, 1.6186671322644584E9, 2021-04-17 16:45:32.264
122.0, -436.2256774902344, -203.0634765625, -270.4246826171875, -141.75155639648438, 0.0, 0.0, 0.0, 0.0, 0.0, 0.0, 0.0, 0.0, 1.6186671322644584E9, 2021-04-17 16:45:32.264
123.0, -423.4202575683594, -157.05897521972656, -231.3352508544922, -167.874755859375, 0.0, 0.0, 0.0, 0.0, 0.0, 0.0, 0.0, 0.0, 1.6186671322801971E9, 2021-04-17 16:45:32.280
123.0, -419.6654052734375, -154.32884216308594, -203.63381958007812, -94.02295684814453, 0.0, 0.0, 0.0, 0.0, 0.0, 0.0, 0.0, 0.0, 1.6186671322801971E9, 2021-04-17 16:45:32.280
124.0, -421.5839538574219, -152.97499084472656, -205.3840789794922, -127.31928253173828, 0.0, 0.0, 0.0, 0.0, 0.0, 0.0, 0.0, 0.0, 1.6186671322808287E9, 2021-04-17 16:45:32.280
124.0, -445.3659973144531, -154.27273559570312, -150.744140625, -156.96546936035156, 0.0, 0.0, 0.0, 0.0, 0.0, 0.0, 0.0, 0.0, 1.6186671322808287E9, 2021-04-17 16:45:32.280
125.0, -424.84515380859375, -163.87306213378906, -227.988037109375, -160.4061737060547, 0.0, 0.0, 0.0, 0.0, 0.0, 0.0, 0.0, 0.0, 1.6186671323108594E9, 2021-04-17 16:45:32.310
125.0, -428.3868408203125, -173.37240600585938, -120.29762268066406, -119.2298812866211, 0.0, 0.0, 0.0, 0.0, 0.0, 0.0, 0.0, 0.0, 1.6186671323108594E9, 2021-04-17 16:45:32.310
126.0, -416.4378662109375, -140.59219360351562, -284.02294921875, -138.5876007080078, 0.0, 0.0, 0.0, 0.0, 0.0, 0.0, 0.0, 0.0, 1.618667132311562E9, 2021-04-17 16:45:32.311
126.0, -440.3582458496094, -79.31392669677734, -207.11940002441406, -155.8061065673828, 0.0, 0.0, 0.0, 0.0, 0.0, 0.0, 0.0, 0.0, 1.618667132311562E9, 2021-04-17 16:45:32.311
127.0, -428.8056945800781, -157.94906616210938, -281.81268310546875, -118.22010803222656, 0.0, 0.0, 0.0, 0.0, 0.0, 0.0, 0.0, 0.0, 1.6186671323123212E9, 2021-04-17 16:45:32.312
127.0, -427.2910461425781, -148.37118530273438, -173.0975341796875, -142.7351531982422, 0.0, 0.0, 0.0, 0.0, 0.0, 0.0, 0.0, 0.0, 1.6186671323123212E9, 2021-04-17 16:45:32.312
128.0, -417.30926513671875, -141.3813018798828, -212.6843719482422, -192.7600555419922, 0.0, 0.0, 0.0, 0.0, 0.0, 0.0, 0.0, 0.0, 1.618667132324694E9, 2021-04-17 16:45:32.324
128.0, -428.4990234375, -146.42269897460938, -273.74945068359375, -149.42208862304688, 0.0, 0.0, 0.0, 0.0, 0.0, 0.0, 0.0, 0.0, 1.618667132324694E9, 2021-04-17 16:45:32.324
129.0, -447.3144836425781, -166.51344299316406, -245.32247924804688, -146.1309814453125, 0.0, 0.0, 0.0, 0.0, 0.0, 0.0, 0.0, 0.0, 1.6186671323407793E9, 2021-04-17 16:45:32.340
129.0, -420.809814453125, -156.80091857910156, -231.37265014648438, -142.4808349609375, 0.0, 0.0, 0.0, 0.0, 0.0, 0.0, 0.0, 0.0, 1.6186671323407793E9, 2021-04-17 16:45:32.340
130.0, -417.3429260253906, -164.9613800048828, -226.4359893798828, -174.57666015625, 0.0, 0.0, 0.0, 0.0, 0.0, 0.0, 0.0, 0.0, 1.6186671323410597E9, 2021-04-17 16:45:32.341
130.0, -428.2596740722656, -162.2387237548828, -232.6030731201172, -151.3743133544922, 0.0, 0.0, 0.0, 0.0, 0.0, 0.0, 0.0, 0.0, 1.6186671323410597E9, 2021-04-17 16:45:32.341
131.0, -427.0965881347656, -180.78115844726562, -232.9508819580078, -168.58160400390625, 0.0, 0.0, 0.0, 0.0, 0.0, 0.0, 0.0, 0.0, 1.6186671323544192E9, 2021-04-17 16:45:32.354
131.0, -408.60650634765625, -151.74830627441406, -199.85650634765625, -147.00238037109375, 0.0, 0.0, 0.0, 0.0, 0.0, 0.0, 0.0, 0.0, 1.6186671323544192E9, 2021-04-17 16:45:32.354
132.0, -419.02960205078125, -154.10818481445312, -213.55203247070312, -143.01937866210938, 0.0, 0.0, 0.0, 0.0, 0.0, 0.0, 0.0, 0.0, 1.618667132370301E9, 2021-04-17 16:45:32.370
132.0, -440.33209228515625, -165.9674072265625, -193.32290649414062, -152.56735229492188, 0.0, 0.0, 0.0, 0.0, 0.0, 0.0, 0.0, 0.0, 1.618667132370301E9, 2021-04-17 16:45:32.370
133.0, -434.366943359375, -192.2589111328125, -157.05709838867188, -194.34576416015625, 0.0, 0.0, 0.0, 0.0, 0.0, 0.0, 0.0, 0.0, 1.6186671323710313E9, 2021-04-17 16:45:32.371
133.0, -394.0919494628906, -107.07146453857422, -242.51380920410156, -167.26889038085938, 0.0, 0.0, 0.0, 0.0, 0.0, 0.0, 0.0, 0.0, 1.6186671323710313E9, 2021-04-17 16:45:32.371
134.0, -393.9685363769531, -95.96022033691406, -67.71089172363281, -141.74781799316406, 0.0, 0.0, 0.0, 0.0, 0.0, 0.0, 0.0, 0.0, 1.6186671324008353E9, 2021-04-17 16:45:32.400
134.0, -412.09210205078125, -99.5206069946289, -256.2392578125, -151.23594665527344, 0.0, 0.0, 0.0, 0.0, 0.0, 0.0, 0.0, 0.0, 1.6186671324008353E9, 2021-04-17 16:45:32.400
135.0, -407.13671875, -116.03974914550781, -284.6400451660156, -112.51676177978516, 0.0, 0.0, 0.0, 0.0, 0.0, 0.0, 0.0, 0.0, 1.61866713240153E9, 2021-04-17 16:45:32.401
135.0, -417.054931640625, -161.84230041503906, -237.2779541015625, -108.2121353149414, 0.0, 0.0, 0.0, 0.0, 0.0, 0.0, 0.0, 0.0, 1.61866713240153E9, 2021-04-17 16:45:32.401
136.0, -426.61785888671875, -178.79527282714844, -236.0924072265625, -125.34461975097656, 0.0, 0.0, 0.0, 0.0, 0.0, 0.0, 0.0, 0.0, 1.6186671324022713E9, 2021-04-17 16:45:32.402
136.0, -425.8212585449219, -162.2910919189453, -231.1220703125, -137.2187957763672, 0.0, 0.0, 0.0, 0.0, 0.0, 0.0, 0.0, 0.0, 1.6186671324022713E9, 2021-04-17 16:45:32.402
137.0, -416.8193359375, -155.73504638671875, -226.28639221191406, -129.49217224121094, 0.0, 0.0, 0.0, 0.0, 0.0, 0.0, 0.0, 0.0, 1.6186671324145563E9, 2021-04-17 16:45:32.414
137.0, -401.467041015625, -152.86654663085938, -212.16078186035156, -143.13157653808594, 0.0, 0.0, 0.0, 0.0, 0.0, 0.0, 0.0, 0.0, 1.6186671324145563E9, 2021-04-17 16:45:32.414
138.0, -390.70733642578125, -149.83721923828125, -235.09385681152344, -150.2037353515625, 0.0, 0.0, 0.0, 0.0, 0.0, 0.0, 0.0, 0.0, 1.618667132430437E9, 2021-04-17 16:45:32.430
138.0, -413.8722839355469, -140.62210083007812, -210.54141235351562, -149.88583374023438, 0.0, 0.0, 0.0, 0.0, 0.0, 0.0, 0.0, 0.0, 1.618667132430437E9, 2021-04-17 16:45:32.430
139.0, -411.62835693359375, -147.17066955566406, -217.61729431152344, -119.65996551513672, 0.0, 0.0, 0.0, 0.0, 0.0, 0.0, 0.0, 0.0, 1.618667132430967E9, 2021-04-17 16:45:32.430
139.0, -397.3194885253906, -164.5799102783203, -213.5482940673828, -147.50726318359375, 0.0, 0.0, 0.0, 0.0, 0.0, 0.0, 0.0, 0.0, 1.618667132430967E9, 2021-04-17 16:45:32.430
140.0, -393.4337463378906, -159.04859924316406, -193.2705535888672, -142.110595703125, 0.0, 0.0, 0.0, 0.0, 0.0, 0.0, 0.0, 0.0, 1.6186671324444675E9, 2021-04-17 16:45:32.444
140.0, -415.1401062011719, -188.1001434326172, -141.60757446289062, -157.86679077148438, 0.0, 0.0, 0.0, 0.0, 0.0, 0.0, 0.0, 0.0, 1.6186671324444675E9, 2021-04-17 16:45:32.444
141.0, -397.76080322265625, -175.8893585205078, -200.3539276123047, -114.06134033203125, 0.0, 0.0, 0.0, 0.0, 0.0, 0.0, 0.0, 0.0, 1.618667132460143E9, 2021-04-17 16:45:32.460
141.0, -390.0603332519531, -157.75833129882812, -226.35369873046875, -107.1874008178711, 0.0, 0.0, 0.0, 0.0, 0.0, 0.0, 0.0, 0.0, 1.618667132460143E9, 2021-04-17 16:45:32.460
142.0, -390.9205322265625, -135.7452850341797, -186.59857177734375, -163.01663208007812, 0.0, 0.0, 0.0, 0.0, 0.0, 0.0, 0.0, 0.0, 1.6186671324608643E9, 2021-04-17 16:45:32.460
142.0, -387.722900390625, -124.22638702392578, -242.1099090576172, -128.11962890625, 0.0, 0.0, 0.0, 0.0, 0.0, 0.0, 0.0, 0.0, 1.6186671324608643E9, 2021-04-17 16:45:32.460
143.0, -394.54449462890625, -124.5293197631836, -224.07984924316406, -99.75996398925781, 0.0, 0.0, 0.0, 0.0, 0.0, 0.0, 0.0, 0.0, 1.618667132474732E9, 2021-04-17 16:45:32.474
143.0, -368.82891845703125, -137.15147399902344, -210.76954650878906, -112.77855682373047, 0.0, 0.0, 0.0, 0.0, 0.0, 0.0, 0.0, 0.0, 1.618667132474732E9, 2021-04-17 16:45:32.474
144.0, -390.0005187988281, -103.99726867675781, -208.1553497314453, -137.3422088623047, 0.0, 0.0, 0.0, 0.0, 0.0, 0.0, 0.0, 0.0, 1.618667132490244E9, 2021-04-17 16:45:32.490
144.0, -399.36895751953125, -171.4800262451172, -192.72451782226562, -121.7393569946289, 0.0, 0.0, 0.0, 0.0, 0.0, 0.0, 0.0, 0.0, 1.618667132490244E9, 2021-04-17 16:45:32.490
145.0, -391.22344970703125, -34.15089797973633, -217.7257537841797, -117.7900161743164, 0.0, 0.0, 0.0, 0.0, 0.0, 0.0, 0.0, 0.0, 1.6186671324908152E9, 2021-04-17 16:45:32.490
145.0, -381.9671936035156, -223.08316040039062, -220.63165283203125, -94.57272338867188, 0.0, 0.0, 0.0, 0.0, 0.0, 0.0, 0.0, 0.0, 1.6186671324908152E9, 2021-04-17 16:45:32.490
146.0, -383.0293273925781, -181.80963134765625, -201.75637817382812, -125.232421875, 0.0, 0.0, 0.0, 0.0, 0.0, 0.0, 0.0, 0.0, 1.6186671325044615E9, 2021-04-17 16:45:32.504
146.0, -397.5177001953125, -173.7763214111328, -215.63140869140625, -117.12057495117188, 0.0, 0.0, 0.0, 0.0, 0.0, 0.0, 0.0, 0.0, 1.6186671325044615E9, 2021-04-17 16:45:32.504
147.0, -376.61541748046875, -157.26092529296875, -204.91285705566406, -122.42749786376953, 0.0, 0.0, 0.0, 0.0, 0.0, 0.0, 0.0, 0.0, 1.6186671325202184E9, 2021-04-17 16:45:32.520
147.0, -364.9095153808594, -164.98756408691406, -174.6495819091797, -170.35430908203125, 0.0, 0.0, 0.0, 0.0, 0.0, 0.0, 0.0, 0.0, 1.6186671325202184E9, 2021-04-17 16:45:32.520
148.0, -343.9024963378906, -119.87688446044922, -224.86148071289062, -168.95559692382812, 0.0, 0.0, 0.0, 0.0, 0.0, 0.0, 0.0, 0.0, 1.6186671325210133E9, 2021-04-17 16:45:32.521
148.0, -395.33734130859375, -200.4305877685547, -132.16058349609375, -193.62771606445312, 0.0, 0.0, 0.0, 0.0, 0.0, 0.0, 0.0, 0.0, 1.6186671325210133E9, 2021-04-17 16:45:32.521
149.0, -387.7976989746094, -127.27440643310547, -206.31532287597656, -27.071266174316406, 0.0, 0.0, 0.0, 0.0, 0.0, 0.0, 0.0, 0.0, 1.6186671325344725E9, 2021-04-17 16:45:32.534
149.0, -381.8400573730469, -140.03494262695312, -129.2958221435547, -96.15095520019531, 0.0, 0.0, 0.0, 0.0, 0.0, 0.0, 0.0, 0.0, 1.6186671325344725E9, 2021-04-17 16:45:32.534
150.0, -394.1031799316406, -156.95799255371094, -269.8262939453125, -136.78123474121094, 0.0, 0.0, 0.0, 0.0, 0.0, 0.0, 0.0, 0.0, 1.61866713255034E9, 2021-04-17 16:45:32.550
150.0, -394.3874206542969, -161.8909149169922, -222.7372283935547, -127.37911987304688, 0.0, 0.0, 0.0, 0.0, 0.0, 0.0, 0.0, 0.0, 1.61866713255034E9, 2021-04-17 16:45:32.550
151.0, -383.20135498046875, -151.02650451660156, -210.46287536621094, -114.68215942382812, 0.0, 0.0, 0.0, 0.0, 0.0, 0.0, 0.0, 0.0, 1.6186671325507889E9, 2021-04-17 16:45:32.550
151.0, -383.6277160644531, -150.73106384277344, -201.52076721191406, -138.59881591796875, 0.0, 0.0, 0.0, 0.0, 0.0, 0.0, 0.0, 0.0, 1.6186671325507889E9, 2021-04-17 16:45:32.550
152.0, -386.6794738769531, -151.5089569091797, -204.2583770751953, -136.64285278320312, 0.0, 0.0, 0.0, 0.0, 0.0, 0.0, 0.0, 0.0, 1.618667132564622E9, 2021-04-17 16:45:32.564
152.0, -389.6788635253906, -136.28382873535156, -198.98886108398438, -122.99595642089844, 0.0, 0.0, 0.0, 0.0, 0.0, 0.0, 0.0, 0.0, 1.618667132564622E9, 2021-04-17 16:45:32.564
153.0, -379.7195129394531, -158.47265625, -196.5691375732422, -119.63005065917969, 0.0, 0.0, 0.0, 0.0, 0.0, 0.0, 0.0, 0.0, 1.6186671325802035E9, 2021-04-17 16:45:32.580
153.0, -371.959228515625, -147.84385681152344, -181.81149291992188, -132.0577392578125, 0.0, 0.0, 0.0, 0.0, 0.0, 0.0, 0.0, 0.0, 1.6186671325802035E9, 2021-04-17 16:45:32.580
154.0, -381.64556884765625, -189.1959228515625, -125.43998718261719, -165.3353729248047, 0.0, 0.0, 0.0, 0.0, 0.0, 0.0, 0.0, 0.0, 1.6186671325807989E9, 2021-04-17 16:45:32.580
154.0, -387.6593322753906, -86.9283676147461, -210.04774475097656, -143.08670043945312, 0.0, 0.0, 0.0, 0.0, 0.0, 0.0, 0.0, 0.0, 1.6186671325807989E9, 2021-04-17 16:45:32.580
155.0, -385.6958923339844, -150.19625854492188, -201.883544921875, -111.05819702148438, 0.0, 0.0, 0.0, 0.0, 0.0, 0.0, 0.0, 0.0, 1.618667132594552E9, 2021-04-17 16:45:32.594
155.0, -361.52117919921875, -101.13624572753906, -204.19105529785156, -129.54078674316406, 0.0, 0.0, 0.0, 0.0, 0.0, 0.0, 0.0, 0.0, 1.618667132594552E9, 2021-04-17 16:45:32.594
156.0, -399.9486389160156, -196.12596130371094, -188.08331298828125, -130.7338104248047, 0.0, 0.0, 0.0, 0.0, 0.0, 0.0, 0.0, 0.0, 1.6186671326102011E9, 2021-04-17 16:45:32.610
156.0, -393.2018737792969, -165.02870178222656, -244.5632781982422, -129.16305541992188, 0.0, 0.0, 0.0, 0.0, 0.0, 0.0, 0.0, 0.0, 1.6186671326102011E9, 2021-04-17 16:45:32.610
157.0, -370.9606628417969, -137.5179901123047, -215.28733825683594, -112.67009735107422, 0.0, 0.0, 0.0, 0.0, 0.0, 0.0, 0.0, 0.0, 1.6186671326108484E9, 2021-04-17 16:45:32.610
157.0, -377.722412109375, -113.4704360961914, -179.21600341796875, -138.9241943359375, 0.0, 0.0, 0.0, 0.0, 0.0, 0.0, 0.0, 0.0, 1.6186671326108484E9, 2021-04-17 16:45:32.610
158.0, -381.72412109375, -165.3765106201172, -204.69593811035156, -170.02520751953125, 0.0, 0.0, 0.0, 0.0, 0.0, 0.0, 0.0, 0.0, 1.618667132624508E9, 2021-04-17 16:45:32.624
158.0, -392.9624938964844, -123.97581481933594, -259.43310546875, -114.38297271728516, 0.0, 0.0, 0.0, 0.0, 0.0, 0.0, 0.0, 0.0, 1.618667132624508E9, 2021-04-17 16:45:32.624
159.0, -382.7862548828125, -123.03710174560547, -139.62542724609375, -119.6113510131836, 0.0, 0.0, 0.0, 0.0, 0.0, 0.0, 0.0, 0.0, 1.618667132640464E9, 2021-04-17 16:45:32.640
159.0, -376.67523193359375, -180.87464904785156, -207.9309539794922, -129.90728759765625, 0.0, 0.0, 0.0, 0.0, 0.0, 0.0, 0.0, 0.0, 1.618667132640464E9, 2021-04-17 16:45:32.640
160.0, -381.5558166503906, -180.2949676513672, -197.39939880371094, -129.2565460205078, 0.0, 0.0, 0.0, 0.0, 0.0, 0.0, 0.0, 0.0, 1.6186671326409109E9, 2021-04-17 16:45:32.640
160.0, -388.56439208984375, -152.3130340576172, -212.88632202148438, -124.54428100585938, 0.0, 0.0, 0.0, 0.0, 0.0, 0.0, 0.0, 0.0, 1.6186671326409109E9, 2021-04-17 16:45:32.640
161.0, -378.9715270996094, -142.54067993164062, -193.67071533203125, -135.58445739746094, 0.0, 0.0, 0.0, 0.0, 0.0, 0.0, 0.0, 0.0, 1.6186671326544712E9, 2021-04-17 16:45:32.654
161.0, -349.83770751953125, -222.33892822265625, -162.96240234375, -139.53753662109375, 0.0, 0.0, 0.0, 0.0, 0.0, 0.0, 0.0, 0.0, 1.6186671326544712E9, 2021-04-17 16:45:32.654
162.0, -379.9364318847656, -143.98802185058594, -175.70050048828125, -189.43902587890625, 0.0, 0.0, 0.0, 0.0, 0.0, 0.0, 0.0, 0.0, 1.618667132686508E9, 2021-04-17 16:45:32.686
162.0, -381.0284729003906, -143.17645263671875, -210.55636596679688, -104.0945053100586, 0.0, 0.0, 0.0, 0.0, 0.0, 0.0, 0.0, 0.0, 1.618667132686508E9, 2021-04-17 16:45:32.686
163.0, -392.7755126953125, -172.2841033935547, -195.5593719482422, -99.34109497070312, 0.0, 0.0, 0.0, 0.0, 0.0, 0.0, 0.0, 0.0, 1.6186671326872277E9, 2021-04-17 16:45:32.687
163.0, -371.6787414550781, -169.2809600830078, -199.54983520507812, -128.8302001953125, 0.0, 0.0, 0.0, 0.0, 0.0, 0.0, 0.0, 0.0, 1.6186671326872277E9, 2021-04-17 16:45:32.687
164.0, -383.4668884277344, -159.79656982421875, -193.3528289794922, -148.2402801513672, 0.0, 0.0, 0.0, 0.0, 0.0, 0.0, 0.0, 0.0, 1.618667132687993E9, 2021-04-17 16:45:32.687
164.0, -381.806396484375, -159.75169372558594, -192.2981719970703, -133.3405303955078, 0.0, 0.0, 0.0, 0.0, 0.0, 0.0, 0.0, 0.0, 1.618667132687993E9, 2021-04-17 16:45:32.687
165.0, -369.6217956542969, -165.78414916992188, -187.2567901611328, -132.35693359375, 0.0, 0.0, 0.0, 0.0, 0.0, 0.0, 0.0, 0.0, 1.6186671326887443E9, 2021-04-17 16:45:32.688
165.0, -367.5349426269531, -164.2807159423828, -137.76669311523438, -142.80247497558594, 0.0, 0.0, 0.0, 0.0, 0.0, 0.0, 0.0, 0.0, 1.6186671326887443E9, 2021-04-17 16:45:32.688
166.0, -375.59814453125, -161.9096221923828, -215.63140869140625, -147.97100830078125, 0.0, 0.0, 0.0, 0.0, 0.0, 0.0, 0.0, 0.0, 1.6186671326994772E9, 2021-04-17 16:45:32.699
166.0, -375.3849792480469, -165.51113891601562, -191.871826171875, -129.90728759765625, 0.0, 0.0, 0.0, 0.0, 0.0, 0.0, 0.0, 0.0, 1.6186671326994772E9, 2021-04-17 16:45:32.699
167.0, -373.5860900878906, -153.36769104003906, -184.3621063232422, -122.19561767578125, 0.0, 0.0, 0.0, 0.0, 0.0, 0.0, 0.0, 0.0, 1.6186671327145832E9, 2021-04-17 16:45:32.714
167.0, -358.1739501953125, -156.10903930664062, -157.76768493652344, -145.6522674560547, 0.0, 0.0, 0.0, 0.0, 0.0, 0.0, 0.0, 0.0, 1.6186671327145832E9, 2021-04-17 16:45:32.714
168.0, -364.2662658691406, -152.77304077148438, -220.51571655273438, -145.8355255126953, 0.0, 0.0, 0.0, 0.0, 0.0, 0.0, 0.0, 0.0, 1.6186671327300828E9, 2021-04-17 16:45:32.730
168.0, -376.5443420410156, -174.3597412109375, -174.20828247070312, -129.82875061035156, 0.0, 0.0, 0.0, 0.0, 0.0, 0.0, 0.0, 0.0, 1.6186671327300828E9, 2021-04-17 16:45:32.730
169.0, -311.9824523925781, -161.76002502441406, -191.80076599121094, -131.2798309326172, 0.0, 0.0, 0.0, 0.0, 0.0, 0.0, 0.0, 0.0, 1.618667132745199E9, 2021-04-17 16:45:32.745
169.0, -204.95025634765625, -166.40872192382812, -196.75613403320312, -175.65374755859375, 0.0, 0.0, 0.0, 0.0, 0.0, 0.0, 0.0, 0.0, 1.618667132745199E9, 2021-04-17 16:45:32.745
170.0, -514.0903930664062, -218.94309997558594, -228.05535888671875, -202.2593994140625, 0.0, 0.0, 0.0, 0.0, 0.0, 0.0, 0.0, 0.0, 1.618667132745902E9, 2021-04-17 16:45:32.745
170.0, -371.0504455566406, -132.4803466796875, -177.3797149658203, -78.41635131835938, 0.0, 0.0, 0.0, 0.0, 0.0, 0.0, 0.0, 0.0, 1.618667132745902E9, 2021-04-17 16:45:32.745
171.0, -385.7744140625, -146.1758575439453, -182.76890563964844, -108.66092681884766, 0.0, 0.0, 0.0, 0.0, 0.0, 0.0, 0.0, 0.0, 1.6186671327604775E9, 2021-04-17 16:45:32.760
171.0, -382.9508056640625, -156.09780883789062, -187.8776092529297, -125.94300079345703, 0.0, 0.0, 0.0, 0.0, 0.0, 0.0, 0.0, 0.0, 1.6186671327604775E9, 2021-04-17 16:45:32.760
172.0, -391.0140075683594, -158.70079040527344, -191.52401733398438, -135.37876892089844, 0.0, 0.0, 0.0, 0.0, 0.0, 0.0, 0.0, 0.0, 1.6186671327608848E9, 2021-04-17 16:45:32.760
172.0, -388.1230773925781, -148.30386352539062, -113.03473663330078, -131.50048828125, 0.0, 0.0, 0.0, 0.0, 0.0, 0.0, 0.0, 0.0, 1.6186671327608848E9, 2021-04-17 16:45:32.760
173.0, -364.3597412109375, -98.46221923828125, -118.86524200439453, -151.2172393798828, 0.0, 0.0, 0.0, 0.0, 0.0, 0.0, 0.0, 0.0, 1.6186671327744856E9, 2021-04-17 16:45:32.774
173.0, -367.2656555175781, -52.409088134765625, -250.9659881591797, -137.80970764160156, 0.0, 0.0, 0.0, 0.0, 0.0, 0.0, 0.0, 0.0, 1.6186671327744856E9, 2021-04-17 16:45:32.774
174.0, -377.2474365234375, -185.0147247314453, -224.24440002441406, -155.93699645996094, 0.0, 0.0, 0.0, 0.0, 0.0, 0.0, 0.0, 0.0, 1.6186671327905471E9, 2021-04-17 16:45:32.790
174.0, -379.72698974609375, -205.4832000732422, -178.8457489013672, -127.33798217773438, 0.0, 0.0, 0.0, 0.0, 0.0, 0.0, 0.0, 0.0, 1.6186671327905471E9, 2021-04-17 16:45:32.790
175.0, -383.825927734375, -195.58741760253906, -191.00042724609375, -142.64540100097656, 0.0, 0.0, 0.0, 0.0, 0.0, 0.0, 0.0, 0.0, 1.6186671327909932E9, 2021-04-17 16:45:32.790
175.0, -354.8678894042969, -166.45359802246094, -95.554443359375, -167.194091796875, 0.0, 0.0, 0.0, 0.0, 0.0, 0.0, 0.0, 0.0, 1.6186671327909932E9, 2021-04-17 16:45:32.790
176.0, -385.2882385253906, -124.48069763183594, -264.85223388671875, -142.74636840820312, 0.0, 0.0, 0.0, 0.0, 0.0, 0.0, 0.0, 0.0, 1.6186671328045027E9, 2021-04-17 16:45:32.804
176.0, -376.5592956542969, -142.37611389160156, -208.2750244140625, -90.98241424560547, 0.0, 0.0, 0.0, 0.0, 0.0, 0.0, 0.0, 0.0, 1.6186671328045027E9, 2021-04-17 16:45:32.804
177.0, -380.3029479980469, -150.36080932617188, -171.85214233398438, -123.78507995605469, 0.0, 0.0, 0.0, 0.0, 0.0, 0.0, 0.0, 0.0, 1.6186671328202095E9, 2021-04-17 16:45:32.820
177.0, -378.6312255859375, -159.7442169189453, -205.36912536621094, -142.41726684570312, 0.0, 0.0, 0.0, 0.0, 0.0, 0.0, 0.0, 0.0, 1.6186671328202095E9, 2021-04-17 16:45:32.820
178.0, -387.745361328125, -155.73130798339844, -197.8145294189453, -145.42788696289062, 0.0, 0.0, 0.0, 0.0, 0.0, 0.0, 0.0, 0.0, 1.61866713282083E9, 2021-04-17 16:45:32.820
178.0, -378.96405029296875, -165.51113891601562, -185.9291229248047, -123.67662048339844, 0.0, 0.0, 0.0, 0.0, 0.0, 0.0, 0.0, 0.0, 1.61866713282083E9, 2021-04-17 16:45:32.820
179.0, -374.3826904296875, -151.22097778320312, -182.18922424316406, -133.86410522460938, 0.0, 0.0, 0.0, 0.0, 0.0, 0.0, 0.0, 0.0, 1.6186671328344824E9, 2021-04-17 16:45:32.834
179.0, -378.18243408203125, -160.48097229003906, -181.42254638671875, -136.9196014404297, 0.0, 0.0, 0.0, 0.0, 0.0, 0.0, 0.0, 0.0, 1.6186671328344824E9, 2021-04-17 16:45:32.834
180.0, -379.38665771484375, -145.04266357421875, -188.6031494140625, -131.7548065185547, 0.0, 0.0, 0.0, 0.0, 0.0, 0.0, 0.0, 0.0, 1.618667132866505E9, 2021-04-17 16:45:32.866
180.0, -376.91461181640625, -164.28445434570312, -170.52821350097656, -128.8863067626953, 0.0, 0.0, 0.0, 0.0, 0.0, 0.0, 0.0, 0.0, 1.618667132866505E9, 2021-04-17 16:45:32.866
181.0, -368.2193298339844, -157.7022247314453, -150.2429962158203, -131.6313934326172, 0.0, 0.0, 0.0, 0.0, 0.0, 0.0, 0.0, 0.0, 1.6186671328672345E9, 2021-04-17 16:45:32.867
181.0, -359.4417724609375, -137.95556640625, -196.1876678466797, -129.47720336914062, 0.0, 0.0, 0.0, 0.0, 0.0, 0.0, 0.0, 0.0, 1.6186671328672345E9, 2021-04-17 16:45:32.867
182.0, -376.701416015625, -143.5878448486328, -194.2915496826172, -134.8140411376953, 0.0, 0.0, 0.0, 0.0, 0.0, 0.0, 0.0, 0.0, 1.6186671328679981E9, 2021-04-17 16:45:32.867
182.0, -381.6231384277344, -173.70899963378906, -184.95675659179688, -119.2710189819336, 0.0, 0.0, 0.0, 0.0, 0.0, 0.0, 0.0, 0.0, 1.6186671328679981E9, 2021-04-17 16:45:32.867
183.0, -362.8488464355469, -135.24412536621094, -134.98794555664062, -126.32073211669922, 0.0, 0.0, 0.0, 0.0, 0.0, 0.0, 0.0, 0.0, 1.6186671328687267E9, 2021-04-17 16:45:32.868
183.0, -349.7030944824219, -76.90917205810547, -96.18274688720703, -173.32005310058594, 0.0, 0.0, 0.0, 0.0, 0.0, 0.0, 0.0, 0.0, 1.6186671328687267E9, 2021-04-17 16:45:32.868
184.0, -379.588623046875, -62.79853057861328, -212.388916015625, -183.49632263183594, 0.0, 0.0, 0.0, 0.0, 0.0, 0.0, 0.0, 0.0, 1.6186671328794641E9, 2021-04-17 16:45:32.879
184.0, -377.393310546875, -217.48452758789062, -236.57110595703125, -109.83151245117188, 0.0, 0.0, 0.0, 0.0, 0.0, 0.0, 0.0, 0.0, 1.6186671328794641E9, 2021-04-17 16:45:32.879
185.0, -375.1643371582031, -79.50092315673828, -183.79364013671875, -180.52684020996094, 0.0, 0.0, 0.0, 0.0, 0.0, 0.0, 0.0, 0.0, 1.6186671328945613E9, 2021-04-17 16:45:32.894
185.0, -374.3602600097656, -126.66480255126953, -177.7013397216797, -87.78480529785156, 0.0, 0.0, 0.0, 0.0, 0.0, 0.0, 0.0, 0.0, 1.6186671328945613E9, 2021-04-17 16:45:32.894
186.0, -372.464111328125, -198.91966247558594, -203.3196563720703, -199.57789611816406, 0.0, 0.0, 0.0, 0.0, 0.0, 0.0, 0.0, 0.0, 1.618667132910202E9, 2021-04-17 16:45:32.910
186.0, -380.258056640625, -95.6610336303711, -145.61300659179688, -56.10411071777344, 0.0, 0.0, 0.0, 0.0, 0.0, 0.0, 0.0, 0.0, 1.618667132910202E9, 2021-04-17 16:45:32.910
187.0, -386.3503723144531, -148.7040252685547, -154.70469665527344, -83.54375457763672, 0.0, 0.0, 0.0, 0.0, 0.0, 0.0, 0.0, 0.0, 1.6186671329109266E9, 2021-04-17 16:45:32.910
187.0, -390.66619873046875, -168.28614807128906, -179.18234252929688, -112.3222885131836, 0.0, 0.0, 0.0, 0.0, 0.0, 0.0, 0.0, 0.0, 1.6186671329109266E9, 2021-04-17 16:45:32.910
188.0, -392.9624938964844, -160.2042236328125, -194.1980438232422, -121.41397857666016, 0.0, 0.0, 0.0, 0.0, 0.0, 0.0, 0.0, 0.0, 1.6186671329244964E9, 2021-04-17 16:45:32.924
188.0, -391.5076904296875, -154.53079223632812, -180.27439880371094, -120.38176727294922, 0.0, 0.0, 0.0, 0.0, 0.0, 0.0, 0.0, 0.0, 1.6186671329244964E9, 2021-04-17 16:45:32.924
189.0, -374.8052978515625, -144.09274291992188, -175.57334899902344, -125.80836486816406, 0.0, 0.0, 0.0, 0.0, 0.0, 0.0, 0.0, 0.0, 1.618667132940271E9, 2021-04-17 16:45:32.940
189.0, -382.6590881347656, -150.19625854492188, -161.2345733642578, -147.2791290283203, 0.0, 0.0, 0.0, 0.0, 0.0, 0.0, 0.0, 0.0, 1.618667132940271E9, 2021-04-17 16:45:32.940
190.0, -373.814208984375, -143.85337829589844, -141.60757446289062, -182.05645751953125, 0.0, 0.0, 0.0, 0.0, 0.0, 0.0, 0.0, 0.0, 1.6186671329407823E9, 2021-04-17 16:45:32.940
190.0, -378.72845458984375, -172.17564392089844, -211.22207641601562, -117.13927459716797, 0.0, 0.0, 0.0, 0.0, 0.0, 0.0, 0.0, 0.0, 1.6186671329407823E9, 2021-04-17 16:45:32.940
191.0, -363.3799133300781, -117.2215576171875, -171.54547119140625, -132.54766845703125, 0.0, 0.0, 0.0, 0.0, 0.0, 0.0, 0.0, 0.0, 1.618667132954446E9, 2021-04-17 16:45:32.954
191.0, -368.79901123046875, -119.68988800048828, -185.23350524902344, -140.64454650878906, 0.0, 0.0, 0.0, 0.0, 0.0, 0.0, 0.0, 0.0, 1.618667132954446E9, 2021-04-17 16:45:32.954
192.0, -376.8697204589844, -142.3985595703125, -95.55818176269531, -162.63890075683594, 0.0, 0.0, 0.0, 0.0, 0.0, 0.0, 0.0, 0.0, 1.6186671329701784E9, 2021-04-17 16:45:32.970
192.0, -377.8346252441406, -136.56805419921875, -213.54454040527344, -136.676513671875, 0.0, 0.0, 0.0, 0.0, 0.0, 0.0, 0.0, 0.0, 1.6186671329701784E9, 2021-04-17 16:45:32.970
193.0, -364.2662658691406, -84.94995880126953, -188.91355895996094, -115.87519073486328, 0.0, 0.0, 0.0, 0.0, 0.0, 0.0, 0.0, 0.0, 1.6186671329707675E9, 2021-04-17 16:45:32.970
193.0, -367.3853454589844, -164.11990356445312, -195.59303283691406, -135.47975158691406, 0.0, 0.0, 0.0, 0.0, 0.0, 0.0, 0.0, 0.0, 1.6186671329707675E9, 2021-04-17 16:45:32.970
194.0, -370.6876525878906, -171.21449279785156, -175.74537658691406, -130.9918670654297, 0.0, 0.0, 0.0, 0.0, 0.0, 0.0, 0.0, 0.0, 1.6186671329844577E9, 2021-04-17 16:45:32.984
194.0, -375.8225402832031, -146.15716552734375, -147.77467346191406, -120.72958374023438, 0.0, 0.0, 0.0, 0.0, 0.0, 0.0, 0.0, 0.0, 1.6186671329844577E9, 2021-04-17 16:45:32.984
195.0, -348.3193359375, -198.8673095703125, -135.60877990722656, -145.4465789794922, 0.0, 0.0, 0.0, 0.0, 0.0, 0.0, 0.0, 0.0, 1.6186671330000982E9, 2021-04-17 16:45:33.000
195.0, -369.3637390136719, -139.72079467773438, -229.513916015625, -132.58132934570312, 0.0, 0.0, 0.0, 0.0, 0.0, 0.0, 0.0, 0.0, 1.6186671330000982E9, 2021-04-17 16:45:33.000
196.0, -360.4964294433594, -158.4651641845703, -193.24810791015625, -123.0071792602539, 0.0, 0.0, 0.0, 0.0, 0.0, 0.0, 0.0, 0.0, 1.6186671330008748E9, 2021-04-17 16:45:33.000
196.0, -361.38653564453125, -171.50245666503906, -205.93385314941406, -157.46661376953125, 0.0, 0.0, 0.0, 0.0, 0.0, 0.0, 0.0, 0.0, 1.6186671330008748E9, 2021-04-17 16:45:33.000
197.0, -339.2837219238281, -112.06049346923828, -177.85842895507812, -123.91971588134766, 0.0, 0.0, 0.0, 0.0, 0.0, 0.0, 0.0, 0.0, 1.6186671330146663E9, 2021-04-17 16:45:33.014
197.0, -341.83807373046875, -134.0885009765625, -126.06454467773438, -143.05677795410156, 0.0, 0.0, 0.0, 0.0, 0.0, 0.0, 0.0, 0.0, 1.6186671330146663E9, 2021-04-17 16:45:33.014
198.0, -380.4039306640625, -185.010986328125, -181.6506805419922, -127.18838500976562, 0.0, 0.0, 0.0, 0.0, 0.0, 0.0, 0.0, 0.0, 1.6186671330301695E9, 2021-04-17 16:45:33.030
198.0, -357.298828125, -155.29373168945312, -165.2960968017578, -109.49118041992188, 0.0, 0.0, 0.0, 0.0, 0.0, 0.0, 0.0, 0.0, 1.6186671330301695E9, 2021-04-17 16:45:33.030
199.0, -350.772705078125, -36.92964172363281, -158.94200134277344, -133.81922912597656, 0.0, 0.0, 0.0, 0.0, 0.0, 0.0, 0.0, 0.0, 1.6186671330308797E9, 2021-04-17 16:45:33.030
199.0, -322.00164794921875, -36.263938903808594, -110.12883758544922, -216.73281860351562, 0.0, 0.0, 0.0, 0.0, 0.0, 0.0, 0.0, 0.0, 1.6186671330308797E9, 2021-04-17 16:45:33.030
200.0, -361.48004150390625, -217.9781951904297, -177.52183532714844, -94.30718994140625, 0.0, 0.0, 0.0, 0.0, 0.0, 0.0, 0.0, 0.0, 1.618667133045385E9, 2021-04-17 16:45:33.045
200.0, -364.0493469238281, -189.9588623046875, -151.64920043945312, -90.97493743896484, 0.0, 0.0, 0.0, 0.0, 0.0, 0.0, 0.0, 0.0, 1.618667133045385E9, 2021-04-17 16:45:33.045
0.0, -343.86322021484375, -140.97178649902344, -199.72935485839844, -106.42072296142578, 0.0, 0.0, 0.0, 0.0, 0.0, 0.0, 0.0, 0.0, 1.618667133045967E9, 2021-04-17 16:45:33.045
101.0, -348.9233093261719, -172.30467224121094, -176.448486328125, -122.5621337890625, 0.0, 0.0, 0.0, 0.0, 0.0, 0.0, 0.0, 0.0, 1.6186671330596607E9, 2021-04-17 16:45:33.059
101.0, -346.70556640625, -162.2032012939453, -184.27235412597656, -143.44947814941406, 0.0, 0.0, 0.0, 0.0, 0.0, 0.0, 0.0, 0.0, 1.6186671330596607E9, 2021-04-17 16:45:33.059
102.0, -354.00958251953125, -134.20631408691406, -163.06712341308594, -133.09368896484375, 0.0, 0.0, 0.0, 0.0, 0.0, 0.0, 0.0, 0.0, 1.6186671330753658E9, 2021-04-17 16:45:33.075
102.0, -343.01800537109375, -169.41372680664062, -158.99810791015625, -143.9805450439453, 0.0, 0.0, 0.0, 0.0, 0.0, 0.0, 0.0, 0.0, 1.6186671330753658E9, 2021-04-17 16:45:33.075
103.0, -342.2475891113281, -115.46192932128906, -165.44943237304688, -135.92105102539062, 0.0, 0.0, 0.0, 0.0, 0.0, 0.0, 0.0, 0.0, 1.6186671330759118E9, 2021-04-17 16:45:33.075
103.0, -348.4296569824219, -148.66476440429688, -202.35850524902344, -138.625, 0.0, 0.0, 0.0, 0.0, 0.0, 0.0, 0.0, 0.0, 1.6186671330759118E9, 2021-04-17 16:45:33.075
104.0, -342.48321533203125, -159.8657684326172, -154.71592712402344, -116.29032135009766, 0.0, 0.0, 0.0, 0.0, 0.0, 0.0, 0.0, 0.0, 1.6186671330894532E9, 2021-04-17 16:45:33.089
104.0, -336.99676513671875, -133.65280151367188, -124.72566223144531, -138.31459045410156, 0.0, 0.0, 0.0, 0.0, 0.0, 0.0, 0.0, 0.0, 1.6186671330894532E9, 2021-04-17 16:45:33.089
105.0, -334.73040771484375, -167.8429718017578, -146.28619384765625, -194.52902221679688, 0.0, 0.0, 0.0, 0.0, 0.0, 0.0, 0.0, 0.0, 1.6186671331051807E9, 2021-04-17 16:45:33.105
105.0, -349.77227783203125, -135.65365600585938, -204.0414581298828, -94.00425720214844, 0.0, 0.0, 0.0, 0.0, 0.0, 0.0, 0.0, 0.0, 1.6186671331051807E9, 2021-04-17 16:45:33.105
106.0, -356.0216369628906, -190.4319610595703, -182.99703979492188, -117.11683654785156, 0.0, 0.0, 0.0, 0.0, 0.0, 0.0, 0.0, 0.0, 1.6186671331059325E9, 2021-04-17 16:45:33.105
106.0, -328.8849182128906, -172.6674346923828, -189.7438201904297, -127.77181243896484, 0.0, 0.0, 0.0, 0.0, 0.0, 0.0, 0.0, 0.0, 1.6186671331059325E9, 2021-04-17 16:45:33.105
107.0, -336.8920593261719, -156.95611572265625, -147.50164794921875, -140.89512634277344, 0.0, 0.0, 0.0, 0.0, 0.0, 0.0, 0.0, 0.0, 1.618667133119438E9, 2021-04-17 16:45:33.119
107.0, -338.0738525390625, -156.21188354492188, -173.4378662109375, -133.41531372070312, 0.0, 0.0, 0.0, 0.0, 0.0, 0.0, 0.0, 0.0, 1.618667133119438E9, 2021-04-17 16:45:33.119
108.0, -342.9806213378906, -141.52529907226562, -159.1103057861328, -111.20779418945312, 0.0, 0.0, 0.0, 0.0, 0.0, 0.0, 0.0, 0.0, 1.618667133135203E9, 2021-04-17 16:45:33.135
108.0, -334.9847106933594, -147.71482849121094, -158.14541625976562, -127.19213104248047, 0.0, 0.0, 0.0, 0.0, 0.0, 0.0, 0.0, 0.0, 1.618667133135203E9, 2021-04-17 16:45:33.135
109.0, -333.3765563964844, -147.2436065673828, -160.14625549316406, -138.00418090820312, 0.0, 0.0, 0.0, 0.0, 0.0, 0.0, 0.0, 0.0, 1.61866713313589E9, 2021-04-17 16:45:33.135
109.0, -342.97686767578125, -147.1014862060547, -147.9130401611328, -140.77919006347656, 0.0, 0.0, 0.0, 0.0, 0.0, 0.0, 0.0, 0.0, 1.61866713313589E9, 2021-04-17 16:45:33.135
110.0, -337.09027099609375, -151.78758239746094, -140.5005645751953, -144.4667205810547, 0.0, 0.0, 0.0, 0.0, 0.0, 0.0, 0.0, 0.0, 1.6186671331494362E9, 2021-04-17 16:45:33.149
110.0, -336.55548095703125, -146.59286499023438, -183.54307556152344, -123.74394226074219, 0.0, 0.0, 0.0, 0.0, 0.0, 0.0, 0.0, 0.0, 1.6186671331494362E9, 2021-04-17 16:45:33.149
111.0, -336.929443359375, -140.67259216308594, -175.10958862304688, -150.31967163085938, 0.0, 0.0, 0.0, 0.0, 0.0, 0.0, 0.0, 0.0, 1.6186671331652367E9, 2021-04-17 16:45:33.165
111.0, -339.3417053222656, -154.98146057128906, -157.4086456298828, -137.66384887695312, 0.0, 0.0, 0.0, 0.0, 0.0, 0.0, 0.0, 0.0, 1.6186671331652367E9, 2021-04-17 16:45:33.165
112.0, -341.9858093261719, -159.8956756591797, -171.59034729003906, -128.09718322753906, 0.0, 0.0, 0.0, 0.0, 0.0, 0.0, 0.0, 0.0, 1.6186671331659436E9, 2021-04-17 16:45:33.165
112.0, -334.6219482421875, -140.31356811523438, -156.57838439941406, -135.92852783203125, 0.0, 0.0, 0.0, 0.0, 0.0, 0.0, 0.0, 0.0, 1.6186671331659436E9, 2021-04-17 16:45:33.165
113.0, -341.9633483886719, -154.54014587402344, -160.4117889404297, -149.55673217773438, 0.0, 0.0, 0.0, 0.0, 0.0, 0.0, 0.0, 0.0, 1.6186671331794348E9, 2021-04-17 16:45:33.179
113.0, -349.3833312988281, -148.02523803710938, -146.7237548828125, -152.80670166015625, 0.0, 0.0, 0.0, 0.0, 0.0, 0.0, 0.0, 0.0, 1.6186671331794348E9, 2021-04-17 16:45:33.179
114.0, -343.7585144042969, -145.26519775390625, -40.058067321777344, -141.50473022460938, 0.0, 0.0, 0.0, 0.0, 0.0, 0.0, 0.0, 0.0, 1.6186671331952112E9, 2021-04-17 16:45:33.195
114.0, -342.187744140625, -160.6586151123047, -195.71644592285156, -152.111083984375, 0.0, 0.0, 0.0, 0.0, 0.0, 0.0, 0.0, 0.0, 1.6186671331952112E9, 2021-04-17 16:45:33.195
115.0, -340.72918701171875, -147.83450317382812, -228.47796630859375, -151.71839904785156, 0.0, 0.0, 0.0, 0.0, 0.0, 0.0, 0.0, 0.0, 1.618667133195878E9, 2021-04-17 16:45:33.195
115.0, -346.2081604003906, -137.4300994873047, -170.69651794433594, -150.8843994140625, 0.0, 0.0, 0.0, 0.0, 0.0, 0.0, 0.0, 0.0, 1.618667133195878E9, 2021-04-17 16:45:33.195
116.0, -331.1176452636719, -78.01431274414062, -156.03236389160156, -133.8454132080078, 0.0, 0.0, 0.0, 0.0, 0.0, 0.0, 0.0, 0.0, 1.618667133209485E9, 2021-04-17 16:45:33.209
116.0, -326.5101013183594, -134.91688537597656, -174.9899139404297, -121.85529327392578, 0.0, 0.0, 0.0, 0.0, 0.0, 0.0, 0.0, 0.0, 1.618667133209485E9, 2021-04-17 16:45:33.209
117.0, -344.0315246582031, -210.54141235351562, -158.74378967285156, -165.85520935058594, 0.0, 0.0, 0.0, 0.0, 0.0, 0.0, 0.0, 0.0, 1.6186671332412956E9, 2021-04-17 16:45:33.241
117.0, -338.3356628417969, -152.8272705078125, -164.21527099609375, -137.40953063964844, 0.0, 0.0, 0.0, 0.0, 0.0, 0.0, 0.0, 0.0, 1.6186671332412956E9, 2021-04-17 16:45:33.241
118.0, -348.54931640625, -166.15628051757812, -165.8421173095703, -133.42654418945312, 0.0, 0.0, 0.0, 0.0, 0.0, 0.0, 0.0, 0.0, 1.618667133241995E9, 2021-04-17 16:45:33.241
118.0, -334.921142578125, -135.9490966796875, -159.5291748046875, -142.780029296875, 0.0, 0.0, 0.0, 0.0, 0.0, 0.0, 0.0, 0.0, 1.618667133241995E9, 2021-04-17 16:45:33.241
119.0, -340.168212890625, -164.20404052734375, -164.3162384033203, -157.16741943359375, 0.0, 0.0, 0.0, 0.0, 0.0, 0.0, 0.0, 0.0, 1.618667133242931E9, 2021-04-17 16:45:33.242
119.0, -351.08123779296875, -153.73606872558594, -163.36630249023438, -147.17066955566406, 0.0, 0.0, 0.0, 0.0, 0.0, 0.0, 0.0, 0.0, 1.618667133242931E9, 2021-04-17 16:45:33.242
120.0, -343.0254821777344, -150.21682739257812, -160.38934326171875, -135.17681884765625, 0.0, 0.0, 0.0, 0.0, 0.0, 0.0, 0.0, 0.0, 1.6186671332551856E9, 2021-04-17 16:45:33.255
120.0, -332.3929443359375, -157.79385375976562, -155.2357635498047, -144.0964813232422, 0.0, 0.0, 0.0, 0.0, 0.0, 0.0, 0.0, 0.0, 1.6186671332551856E9, 2021-04-17 16:45:33.255
121.0, -336.7013244628906, -141.27098083496094, -171.68011474609375, -178.76161193847656, 0.0, 0.0, 0.0, 0.0, 0.0, 0.0, 0.0, 0.0, 1.6186671332558472E9, 2021-04-17 16:45:33.255
121.0, -351.2084045410156, -171.45571899414062, -177.2974395751953, -174.6177978515625, 0.0, 0.0, 0.0, 0.0, 0.0, 0.0, 0.0, 0.0, 1.6186671332558472E9, 2021-04-17 16:45:33.255
122.0, -334.5471496582031, -113.38628387451172, -141.7683868408203, -85.11450958251953, 0.0, 0.0, 0.0, 0.0, 0.0, 0.0, 0.0, 0.0, 1.6186671332696495E9, 2021-04-17 16:45:33.269
122.0, -339.1509704589844, -162.78662109375, -151.94091796875, -143.83468627929688, 0.0, 0.0, 0.0, 0.0, 0.0, 0.0, 0.0, 0.0, 1.6186671332696495E9, 2021-04-17 16:45:33.269
123.0, -351.53375244140625, -151.1331024169922, -156.63449096679688, -156.39700317382812, 0.0, 0.0, 0.0, 0.0, 0.0, 0.0, 0.0, 0.0, 1.6186671332852423E9, 2021-04-17 16:45:33.285
123.0, -351.4290466308594, -163.49346923828125, -144.7752685546875, -146.2095184326172, 0.0, 0.0, 0.0, 0.0, 0.0, 0.0, 0.0, 0.0, 1.6186671332852423E9, 2021-04-17 16:45:33.285
124.0, -345.65838623046875, -147.54653930664062, -193.26681518554688, -129.70907592773438, 0.0, 0.0, 0.0, 0.0, 0.0, 0.0, 0.0, 0.0, 1.618667133285807E9, 2021-04-17 16:45:33.285
124.0, -342.6028747558594, -144.8201446533203, -154.13998413085938, -159.24307250976562, 0.0, 0.0, 0.0, 0.0, 0.0, 0.0, 0.0, 0.0, 1.618667133285807E9, 2021-04-17 16:45:33.285
125.0, -341.5818786621094, -147.49417114257812, -168.50119018554688, -155.61163330078125, 0.0, 0.0, 0.0, 0.0, 0.0, 0.0, 0.0, 0.0, 1.6186671332994432E9, 2021-04-17 16:45:33.299
125.0, -350.3856201171875, -146.61903381347656, -160.06398010253906, -151.01528930664062, 0.0, 0.0, 0.0, 0.0, 0.0, 0.0, 0.0, 0.0, 1.6186671332994432E9, 2021-04-17 16:45:33.299
126.0, -336.70880126953125, -147.2660369873047, -155.36293029785156, -144.47421264648438, 0.0, 0.0, 0.0, 0.0, 0.0, 0.0, 0.0, 0.0, 1.6186671333315423E9, 2021-04-17 16:45:33.331
126.0, -342.5841979980469, -149.85031127929688, -154.9777069091797, -142.9184112548828, 0.0, 0.0, 0.0, 0.0, 0.0, 0.0, 0.0, 0.0, 1.6186671333315423E9, 2021-04-17 16:45:33.331
127.0, -342.2326354980469, -156.1370849609375, -160.9727783203125, -163.48037719726562, 0.0, 0.0, 0.0, 0.0, 0.0, 0.0, 0.0, 0.0, 1.6186671333322265E9, 2021-04-17 16:45:33.332
127.0, -346.02862548828125, -152.363525390625, -157.68539428710938, -150.52536010742188, 0.0, 0.0, 0.0, 0.0, 0.0, 0.0, 0.0, 0.0, 1.6186671333322265E9, 2021-04-17 16:45:33.332
128.0, -336.1478271484375, -132.75149536132812, -139.9021759033203, -143.0792236328125, 0.0, 0.0, 0.0, 0.0, 0.0, 0.0, 0.0, 0.0, 1.618667133332991E9, 2021-04-17 16:45:33.332
128.0, -333.64581298828125, -132.3101806640625, -110.47290802001953, -155.77618408203125, 0.0, 0.0, 0.0, 0.0, 0.0, 0.0, 0.0, 0.0, 1.618667133332991E9, 2021-04-17 16:45:33.332
129.0, -340.1457824707031, -162.2854766845703, -162.9998016357422, -161.6029510498047, 0.0, 0.0, 0.0, 0.0, 0.0, 0.0, 0.0, 0.0, 1.6186671333337433E9, 2021-04-17 16:45:33.333
129.0, -346.2904357910156, -157.29644775390625, -175.25918579101562, -141.32521057128906, 0.0, 0.0, 0.0, 0.0, 0.0, 0.0, 0.0, 0.0, 1.6186671333337433E9, 2021-04-17 16:45:33.333
130.0, -340.5721130371094, -163.44485473632812, -177.6190643310547, -127.8840103149414, 0.0, 0.0, 0.0, 0.0, 0.0, 0.0, 0.0, 0.0, 1.6186671333601933E9, 2021-04-17 16:45:33.360
130.0, -327.37774658203125, -157.7489776611328, -167.24832153320312, -142.24522399902344, 0.0, 0.0, 0.0, 0.0, 0.0, 0.0, 0.0, 0.0, 1.6186671333601933E9, 2021-04-17 16:45:33.360
131.0, -340.64691162109375, -149.1846160888672, -159.67129516601562, -148.5394744873047, 0.0, 0.0, 0.0, 0.0, 0.0, 0.0, 0.0, 0.0, 1.6186671333608596E9, 2021-04-17 16:45:33.360
131.0, -338.7881774902344, -164.1928253173828, -163.99087524414062, -141.9759521484375, 0.0, 0.0, 0.0, 0.0, 0.0, 0.0, 0.0, 0.0, 1.6186671333608596E9, 2021-04-17 16:45:33.360
132.0, -342.2064514160156, -140.42576599121094, -172.17752075195312, -127.75311279296875, 0.0, 0.0, 0.0, 0.0, 0.0, 0.0, 0.0, 0.0, 1.6186671333752732E9, 2021-04-17 16:45:33.375
132.0, -336.9705810546875, -154.2746124267578, -164.62290954589844, -144.6425018310547, 0.0, 0.0, 0.0, 0.0, 0.0, 0.0, 0.0, 0.0, 1.6186671333752732E9, 2021-04-17 16:45:33.375
133.0, -339.4913024902344, -149.10232543945312, -167.117431640625, -151.2957763671875, 0.0, 0.0, 0.0, 0.0, 0.0, 0.0, 0.0, 0.0, 1.618667133375888E9, 2021-04-17 16:45:33.375
133.0, -347.9397277832031, -152.4420623779297, -161.27197265625, -141.06715393066406, 0.0, 0.0, 0.0, 0.0, 0.0, 0.0, 0.0, 0.0, 1.618667133375888E9, 2021-04-17 16:45:33.375
134.0, -339.7829895019531, -150.22804260253906, -71.17403411865234, -150.42813110351562, 0.0, 0.0, 0.0, 0.0, 0.0, 0.0, 0.0, 0.0, 1.6186671333894973E9, 2021-04-17 16:45:33.389
134.0, -334.4237365722656, -143.73558044433594, -183.15037536621094, -163.65989685058594, 0.0, 0.0, 0.0, 0.0, 0.0, 0.0, 0.0, 0.0, 1.6186671333894973E9, 2021-04-17 16:45:33.389
135.0, -349.5777893066406, -129.79696655273438, -207.43728637695312, -155.74252319335938, 0.0, 0.0, 0.0, 0.0, 0.0, 0.0, 0.0, 0.0, 1.6186671334216685E9, 2021-04-17 16:45:33.421
135.0, -347.4348449707031, -112.48497009277344, -174.04747009277344, -140.2892608642578, 0.0, 0.0, 0.0, 0.0, 0.0, 0.0, 0.0, 0.0, 1.6186671334216685E9, 2021-04-17 16:45:33.421
136.0, -353.055908203125, -184.53414916992188, -181.79653930664062, -140.64080810546875, 0.0, 0.0, 0.0, 0.0, 0.0, 0.0, 0.0, 0.0, 1.6186671334223087E9, 2021-04-17 16:45:33.422
136.0, -331.7833557128906, -159.9517822265625, -147.55775451660156, -153.7641143798828, 0.0, 0.0, 0.0, 0.0, 0.0, 0.0, 0.0, 0.0, 1.6186671334223087E9, 2021-04-17 16:45:33.422
137.0, -354.4583740234375, -110.67859649658203, -167.8018341064453, -157.79946899414062, 0.0, 0.0, 0.0, 0.0, 0.0, 0.0, 0.0, 0.0, 1.6186671334230263E9, 2021-04-17 16:45:33.423
137.0, -347.4385681152344, -160.931640625, -175.52098083496094, -130.7899169921875, 0.0, 0.0, 0.0, 0.0, 0.0, 0.0, 0.0, 0.0, 1.6186671334230263E9, 2021-04-17 16:45:33.423
138.0, -355.673828125, -153.49298095703125, -180.16220092773438, -158.34922790527344, 0.0, 0.0, 0.0, 0.0, 0.0, 0.0, 0.0, 0.0, 1.618667133423771E9, 2021-04-17 16:45:33.423
138.0, -348.4969787597656, -166.80328369140625, -161.03260803222656, -130.67022705078125, 0.0, 0.0, 0.0, 0.0, 0.0, 0.0, 0.0, 0.0, 1.618667133423771E9, 2021-04-17 16:45:33.423
139.0, -348.0481872558594, -148.32443237304688, -166.6050567626953, -151.92408752441406, 0.0, 0.0, 0.0, 0.0, 0.0, 0.0, 0.0, 0.0, 1.6186671334344523E9, 2021-04-17 16:45:33.434
139.0, -359.6830139160156, -155.35169982910156, -170.3487091064453, -143.13531494140625, 0.0, 0.0, 0.0, 0.0, 0.0, 0.0, 0.0, 0.0, 1.6186671334344523E9, 2021-04-17 16:45:33.434
140.0, -345.4638977050781, -142.4415740966797, -163.36630249023438, -137.67880249023438, 0.0, 0.0, 0.0, 0.0, 0.0, 0.0, 0.0, 0.0, 1.6186671334494383E9, 2021-04-17 16:45:33.449
140.0, -342.5205993652344, -153.01426696777344, -149.07989501953125, -153.7977752685547, 0.0, 0.0, 0.0, 0.0, 0.0, 0.0, 0.0, 0.0, 1.6186671334494383E9, 2021-04-17 16:45:33.449
141.0, -348.8821716308594, -142.28074645996094, -174.73187255859375, -162.50425720214844, 0.0, 0.0, 0.0, 0.0, 0.0, 0.0, 0.0, 0.0, 1.618667133465302E9, 2021-04-17 16:45:33.465
141.0, -360.3150634765625, -150.02609252929688, -158.52313232421875, -139.14111328125, 0.0, 0.0, 0.0, 0.0, 0.0, 0.0, 0.0, 0.0, 1.618667133465302E9, 2021-04-17 16:45:33.465
142.0, -354.83984375, -137.4076690673828, -152.55799865722656, -141.30276489257812, 0.0, 0.0, 0.0, 0.0, 0.0, 0.0, 0.0, 0.0, 1.6186671334658628E9, 2021-04-17 16:45:33.465
142.0, -340.7478942871094, -146.82847595214844, -178.45306396484375, -150.23365783691406, 0.0, 0.0, 0.0, 0.0, 0.0, 0.0, 0.0, 0.0, 1.6186671334658628E9, 2021-04-17 16:45:33.465
143.0, -349.312255859375, -156.35400390625, -163.2578582763672, -157.94158935546875, 0.0, 0.0, 0.0, 0.0, 0.0, 0.0, 0.0, 0.0, 1.618667133479448E9, 2021-04-17 16:45:33.479
143.0, -351.36920166015625, -150.13829040527344, -162.7828826904297, -146.57603454589844, 0.0, 0.0, 0.0, 0.0, 0.0, 0.0, 0.0, 0.0, 1.618667133479448E9, 2021-04-17 16:45:33.479
144.0, -363.61737060546875, -139.40103149414062, -159.21876525878906, -139.8965606689453, 0.0, 0.0, 0.0, 0.0, 0.0, 0.0, 0.0, 0.0, 1.6186671335115526E9, 2021-04-17 16:45:33.511
144.0, -350.57635498046875, -148.8854217529297, -173.46029663085938, -156.2100067138672, 0.0, 0.0, 0.0, 0.0, 0.0, 0.0, 0.0, 0.0, 1.6186671335115526E9, 2021-04-17 16:45:33.511
145.0, -343.8706970214844, -141.083984375, -171.178955078125, -152.9525604248047, 0.0, 0.0, 0.0, 0.0, 0.0, 0.0, 0.0, 0.0, 1.6186671335122075E9, 2021-04-17 16:45:33.512
145.0, -355.30731201171875, -147.84197998046875, -165.931884765625, -143.19142150878906, 0.0, 0.0, 0.0, 0.0, 0.0, 0.0, 0.0, 0.0, 1.6186671335122075E9, 2021-04-17 16:45:33.512
